Name: Sulphur S
Type: Mineral
Class: Element
Subclass: None
Particle Size: Coarse
Sample No.: E-2A
Owner: JPL
Wavelength Range: VSWIR
Origin: 
Collection Date: N/A
Description: Particle size was 125-500um.Collected by JPL Original ASTER Spectral Library name was jpl.beckman.mineral.element.none.coarse.e02a.spectrum.txt
Measurement: Hemispherical reflectance
First Column: X
Second Column: Y
X Units: Wavelength (micrometers)
Y Units:Reflectance (percent)
First X Value:  0.4000
Last X Value:  2.5000
Number of X Values: 826
Additional Information: mineral.element.none.coarse.vswir.e-2a.jpl.beckman.ancillary.txt

 0.4000	 6.9100
 0.4010	 6.9700
 0.4020	 6.9000
 0.4030	 6.9000
 0.4040	 6.8300
 0.4050	 6.8200
 0.4060	 6.9000
 0.4070	 6.8900
 0.4080	 6.8800
 0.4090	 6.7000
 0.4100	 6.8300
 0.4110	 6.8300
 0.4120	 6.8100
 0.4130	 6.9400
 0.4140	 6.8300
 0.4150	 6.9500
 0.4160	 7.0000
 0.4170	 7.0600
 0.4180	 7.1800
 0.4190	 7.1200
 0.4200	 7.1800
 0.4210	 7.3500
 0.4220	 7.5200
 0.4230	 7.6500
 0.4240	 7.7100
 0.4250	 7.9500
 0.4260	 8.1400
 0.4270	 8.3800
 0.4280	 8.7300
 0.4290	 8.9000
 0.4300	 9.2000
 0.4310	 9.6300
 0.4320	 9.9800
 0.4330	10.5400
 0.4340	10.8800
 0.4350	11.4700
 0.4360	12.1200
 0.4370	12.6900
 0.4380	13.3700
 0.4390	13.9500
 0.4400	14.7800
 0.4410	15.6600
 0.4420	16.4200
 0.4430	17.4000
 0.4440	18.2800
 0.4450	19.2700
 0.4460	20.4300
 0.4470	21.6300
 0.4480	22.7600
 0.4490	23.7900
 0.4500	25.0400
 0.4510	26.4000
 0.4520	27.6600
 0.4530	29.0700
 0.4540	30.2800
 0.4550	31.8100
 0.4560	33.2900
 0.4570	34.6900
 0.4580	35.8400
 0.4590	36.8400
 0.4600	37.3700
 0.4610	40.3700
 0.4620	41.8100
 0.4630	43.5200
 0.4640	44.9200
 0.4650	46.3600
 0.4660	47.7900
 0.4670	49.2200
 0.4680	50.8300
 0.4690	52.1200
 0.4700	53.6300
 0.4710	54.9500
 0.4720	56.3500
 0.4730	57.8300
 0.4740	59.0800
 0.4750	60.3800
 0.4760	61.5800
 0.4770	62.7500
 0.4780	64.1300
 0.4790	65.2200
 0.4800	66.3200
 0.4810	67.3600
 0.4820	68.4600
 0.4830	69.6900
 0.4840	70.5300
 0.4850	71.7100
 0.4860	72.5600
 0.4870	73.3100
 0.4880	74.2100
 0.4890	75.0200
 0.4900	75.9600
 0.4910	76.7000
 0.4920	77.3500
 0.4930	78.3600
 0.4940	78.9800
 0.4950	79.7100
 0.4960	80.3300
 0.4970	80.7700
 0.4980	81.5000
 0.4990	82.0200
 0.5000	82.6900
 0.5010	83.2300
 0.5020	83.6000
 0.5030	84.0700
 0.5040	84.4200
 0.5050	84.9000
 0.5060	85.4700
 0.5070	85.7200
 0.5080	86.1500
 0.5090	86.4000
 0.5100	86.7500
 0.5110	87.2600
 0.5120	87.3700
 0.5130	87.7200
 0.5140	87.9400
 0.5150	88.2900
 0.5160	88.5800
 0.5170	88.6500
 0.5180	89.0000
 0.5190	89.1700
 0.5200	89.3400
 0.5210	89.5700
 0.5220	89.5200
 0.5230	89.7600
 0.5240	89.8700
 0.5250	90.1000
 0.5260	90.4500
 0.5270	90.3300
 0.5280	90.5000
 0.5290	90.4400
 0.5300	90.7200
 0.5310	90.8900
 0.5320	90.7700
 0.5330	90.8300
 0.5340	90.8700
 0.5350	91.0200
 0.5360	91.2500
 0.5370	91.0800
 0.5380	91.1300
 0.5390	91.3100
 0.5400	91.3000
 0.5410	91.4900
 0.5420	91.3100
 0.5430	91.2000
 0.5440	91.4400
 0.5450	91.3900
 0.5460	91.5100
 0.5470	91.5700
 0.5480	91.5700
 0.5490	91.6400
 0.5500	91.6400
 0.5510	91.9300
 0.5520	91.7000
 0.5530	91.9400
 0.5540	91.8800
 0.5550	91.6000
 0.5560	91.7700
 0.5570	91.7000
 0.5580	91.8700
 0.5590	91.9200
 0.5600	91.9100
 0.5610	92.1200
 0.5620	92.2300
 0.5630	92.3500
 0.5640	92.3600
 0.5650	92.3000
 0.5660	92.2300
 0.5670	92.2400
 0.5680	92.2400
 0.5690	92.3000
 0.5700	92.2400
 0.5710	92.1800
 0.5720	92.1700
 0.5730	92.0500
 0.5740	92.0900
 0.5750	92.1300
 0.5760	91.9400
 0.5770	92.0600
 0.5780	92.0600
 0.5790	92.1200
 0.5800	92.1100
 0.5810	91.8800
 0.5820	91.9900
 0.5830	91.8800
 0.5840	91.9400
 0.5850	92.0500
 0.5860	92.0000
 0.5870	92.1100
 0.5880	91.9900
 0.5890	92.0500
 0.5900	92.1700
 0.5910	92.1100
 0.5920	92.1100
 0.5930	92.0500
 0.5940	92.0500
 0.5950	92.2300
 0.5960	92.1800
 0.5970	92.1200
 0.5980	92.0100
 0.5990	92.2500
 0.6000	92.3900
 0.6010	92.3400
 0.6020	92.3500
 0.6030	92.2900
 0.6040	92.2400
 0.6050	92.3600
 0.6060	92.5300
 0.6070	92.3000
 0.6080	92.2400
 0.6090	92.3000
 0.6100	92.4200
 0.6110	92.4700
 0.6120	92.2400
 0.6130	92.3500
 0.6140	92.1800
 0.6150	92.1900
 0.6160	92.3100
 0.6170	92.2500
 0.6180	92.3600
 0.6190	92.0700
 0.6200	92.2500
 0.6210	92.1900
 0.6220	92.3000
 0.6230	92.3000
 0.6240	92.1800
 0.6250	92.2400
 0.6260	92.1300
 0.6270	92.2500
 0.6280	92.3000
 0.6290	92.2400
 0.6300	92.3000
 0.6310	92.2400
 0.6320	92.1300
 0.6330	92.1900
 0.6340	92.1900
 0.6350	92.2400
 0.6360	92.1200
 0.6370	92.1800
 0.6380	92.3000
 0.6390	92.1900
 0.6400	92.1900
 0.6410	92.1300
 0.6420	92.1300
 0.6430	92.3000
 0.6440	92.1900
 0.6450	92.2500
 0.6460	92.0800
 0.6470	92.1800
 0.6480	92.4100
 0.6490	92.3600
 0.6500	92.3600
 0.6510	92.2500
 0.6520	92.3600
 0.6530	92.4200
 0.6540	92.3000
 0.6550	92.4200
 0.6560	92.3000
 0.6570	92.1800
 0.6580	92.3000
 0.6590	92.1300
 0.6600	92.3000
 0.6610	92.1200
 0.6620	92.3000
 0.6630	92.4700
 0.6640	92.3600
 0.6650	92.4200
 0.6660	92.3000
 0.6670	92.3600
 0.6680	92.4800
 0.6690	92.4200
 0.6700	92.4200
 0.6710	92.3000
 0.6720	92.3000
 0.6730	92.4200
 0.6740	92.4700
 0.6750	92.3000
 0.6760	92.3600
 0.6770	92.3000
 0.6780	92.3600
 0.6790	92.3600
 0.6800	92.2400
 0.6810	92.2400
 0.6820	92.1900
 0.6830	92.3600
 0.6840	92.2500
 0.6850	92.4200
 0.6860	92.3000
 0.6870	92.3000
 0.6880	92.4200
 0.6890	92.4200
 0.6900	92.3600
 0.6910	92.3600
 0.6920	92.3000
 0.6930	92.3600
 0.6940	92.4200
 0.6950	92.3600
 0.6960	92.3600
 0.6970	92.4100
 0.6980	92.4600
 0.6990	92.5100
 0.7000	92.3800
 0.7010	92.3900
 0.7020	92.4200
 0.7030	92.4800
 0.7040	92.3100
 0.7050	92.3600
 0.7060	92.5300
 0.7070	92.4200
 0.7080	92.5400
 0.7090	92.3100
 0.7100	92.4800
 0.7110	92.5900
 0.7120	92.5400
 0.7130	92.5400
 0.7140	92.4200
 0.7150	92.3600
 0.7160	92.5300
 0.7170	92.4700
 0.7180	92.4800
 0.7190	92.3600
 0.7200	92.4800
 0.7210	92.4800
 0.7220	92.3600
 0.7230	92.4800
 0.7240	92.3700
 0.7250	92.4300
 0.7260	92.5400
 0.7270	92.3600
 0.7280	92.5300
 0.7290	92.3600
 0.7300	92.3600
 0.7310	92.4200
 0.7320	92.2500
 0.7330	92.4800
 0.7340	92.3100
 0.7350	92.3100
 0.7360	92.5300
 0.7370	92.3600
 0.7380	92.4700
 0.7390	92.3100
 0.7400	92.2500
 0.7410	92.4800
 0.7420	92.3700
 0.7430	92.4800
 0.7440	92.3100
 0.7450	92.3700
 0.7460	92.4800
 0.7470	92.4200
 0.7480	92.5400
 0.7490	92.2500
 0.7500	92.3700
 0.7510	92.6000
 0.7520	92.4200
 0.7530	92.4200
 0.7540	92.4800
 0.7550	92.4800
 0.7560	92.5300
 0.7570	92.2500
 0.7580	92.3700
 0.7590	92.4200
 0.7600	92.3700
 0.7610	92.4800
 0.7620	92.3700
 0.7630	92.4300
 0.7640	92.4800
 0.7650	92.3600
 0.7660	92.5400
 0.7670	92.3100
 0.7680	92.4900
 0.7690	92.2500
 0.7700	92.3700
 0.7710	92.4800
 0.7720	92.3700
 0.7730	92.5400
 0.7740	92.3000
 0.7750	92.3600
 0.7760	92.5400
 0.7770	92.3700
 0.7780	92.3700
 0.7790	92.3100
 0.7800	92.2500
 0.7810	92.4300
 0.7820	92.3100
 0.7830	92.4200
 0.7840	92.3100
 0.7850	92.3700
 0.7860	92.4300
 0.7870	92.3700
 0.7880	92.4300
 0.7890	92.2500
 0.7900	92.2600
 0.7910	92.4800
 0.7920	92.4200
 0.7930	92.6000
 0.7940	92.4200
 0.7950	92.3100
 0.7960	92.4800
 0.7970	92.4800
 0.7980	92.5400
 0.7990	92.5400
 0.8000	92.4500
 0.8040	92.3800
 0.8080	92.3700
 0.8120	92.3200
 0.8160	92.3700
 0.8200	92.3700
 0.8240	92.3100
 0.8280	92.4300
 0.8320	92.4300
 0.8360	92.4900
 0.8400	92.4900
 0.8440	92.5500
 0.8480	92.6000
 0.8520	92.7200
 0.8560	92.7800
 0.8600	92.7800
 0.8640	92.9000
 0.8680	92.7800
 0.8720	92.8400
 0.8760	92.7800
 0.8800	92.7800
 0.8840	92.6600
 0.8880	92.8400
 0.8920	92.8400
 0.8960	92.7800
 0.9000	92.7200
 0.9040	92.7200
 0.9080	92.8400
 0.9120	92.7800
 0.9160	92.8400
 0.9200	92.7800
 0.9240	92.7200
 0.9280	92.8400
 0.9320	92.7800
 0.9360	92.7800
 0.9400	92.8400
 0.9440	92.8400
 0.9480	92.8900
 0.9520	92.8400
 0.9560	92.8400
 0.9600	92.8900
 0.9640	92.9000
 0.9680	92.9000
 0.9720	92.8400
 0.9760	92.8400
 0.9800	92.7200
 0.9840	92.7800
 0.9880	92.7800
 0.9920	92.7800
 0.9960	92.7500
 1.0000	92.8400
 1.0040	92.7800
 1.0080	92.8300
 1.0120	92.9000
 1.0160	92.8400
 1.0200	92.7800
 1.0240	92.7800
 1.0280	92.6600
 1.0320	92.8400
 1.0360	92.7800
 1.0400	92.8400
 1.0440	92.7800
 1.0480	92.7200
 1.0520	92.7200
 1.0560	92.7800
 1.0600	92.7200
 1.0640	92.7200
 1.0680	92.8400
 1.0720	92.8500
 1.0760	92.7900
 1.0800	92.9100
 1.0840	92.8000
 1.0880	92.9200
 1.0920	92.9800
 1.0960	93.0400
 1.1000	92.9300
 1.1040	92.9300
 1.1080	92.8700
 1.1120	92.9900
 1.1160	92.8700
 1.1200	92.9200
 1.1240	92.8600
 1.1280	92.8600
 1.1320	92.8000
 1.1360	92.7400
 1.1400	92.7300
 1.1440	92.8400
 1.1480	92.7800
 1.1520	92.7800
 1.1560	92.7800
 1.1600	92.7700
 1.1640	92.8200
 1.1680	92.7500
 1.1720	92.7400
 1.1760	92.7900
 1.1800	92.8400
 1.1840	92.8300
 1.1880	92.8200
 1.1920	92.7700
 1.1960	92.8700
 1.2000	92.9200
 1.2040	92.9200
 1.2080	92.8100
 1.2120	92.7500
 1.2160	92.7600
 1.2200	92.7600
 1.2240	92.7600
 1.2280	92.6500
 1.2320	92.6000
 1.2360	92.6000
 1.2400	92.6600
 1.2440	92.6600
 1.2480	92.6100
 1.2520	92.7300
 1.2560	92.6600
 1.2600	92.7100
 1.2640	92.6400
 1.2680	92.6800
 1.2720	92.6900
 1.2760	92.6800
 1.2800	92.6700
 1.2840	92.6500
 1.2880	92.8200
 1.2920	92.7600
 1.2960	92.7500
 1.3000	92.7400
 1.3040	92.7300
 1.3080	92.7800
 1.3120	92.6700
 1.3160	92.7200
 1.3200	92.7100
 1.3240	92.7100
 1.3280	92.7000
 1.3320	92.7000
 1.3360	92.6900
 1.3400	92.6800
 1.3440	92.6100
 1.3480	92.6000
 1.3520	92.7200
 1.3560	92.6400
 1.3600	92.6800
 1.3640	92.5700
 1.3680	92.5300
 1.3720	92.5400
 1.3760	92.5300
 1.3800	92.5000
 1.3840	92.4700
 1.3880	92.4800
 1.3920	92.5500
 1.3960	92.5900
 1.4000	92.6000
 1.4040	92.6100
 1.4080	92.6700
 1.4120	92.6800
 1.4160	92.6800
 1.4200	92.7000
 1.4240	92.6500
 1.4280	92.7100
 1.4320	92.7000
 1.4360	92.7700
 1.4400	92.6700
 1.4440	92.6700
 1.4480	92.6300
 1.4520	92.5700
 1.4560	92.5800
 1.4600	92.6300
 1.4640	92.5700
 1.4680	92.6900
 1.4720	92.7400
 1.4760	92.8100
 1.4800	92.7400
 1.4840	92.7400
 1.4880	92.8100
 1.4920	92.6300
 1.4960	92.6800
 1.5000	92.6800
 1.5040	92.5700
 1.5080	92.6900
 1.5120	92.7500
 1.5160	92.8100
 1.5200	92.7500
 1.5240	92.8100
 1.5280	92.7400
 1.5320	92.7400
 1.5360	92.7500
 1.5400	92.8000
 1.5440	92.6800
 1.5480	92.6900
 1.5520	92.6300
 1.5560	92.5800
 1.5600	92.5800
 1.5640	92.6300
 1.5680	92.6300
 1.5720	92.6300
 1.5760	92.5700
 1.5800	92.5700
 1.5840	92.6300
 1.5880	92.5800
 1.5920	92.6300
 1.5960	92.6300
 1.6000	92.6300
 1.6040	92.6800
 1.6080	92.7300
 1.6120	92.8400
 1.6160	92.7800
 1.6200	92.8200
 1.6240	92.8700
 1.6280	92.8000
 1.6320	92.8600
 1.6360	92.8000
 1.6400	92.7900
 1.6440	92.8400
 1.6480	92.7800
 1.6520	92.8900
 1.6560	92.8200
 1.6600	92.8100
 1.6640	92.8000
 1.6680	92.7300
 1.6720	92.7900
 1.6760	92.8400
 1.6800	92.7700
 1.6840	92.7600
 1.6880	92.8100
 1.6920	92.7600
 1.6960	92.8000
 1.7000	92.9100
 1.7040	93.0200
 1.7080	93.0200
 1.7120	92.9100
 1.7160	92.9100
 1.7200	92.9700
 1.7240	92.9600
 1.7280	92.9000
 1.7320	92.9000
 1.7360	92.8500
 1.7400	92.7900
 1.7440	92.7300
 1.7480	92.6200
 1.7520	92.6800
 1.7560	92.6700
 1.7600	92.6700
 1.7640	92.6700
 1.7680	92.6200
 1.7720	92.6800
 1.7760	92.7300
 1.7800	92.7300
 1.7840	92.7900
 1.7880	92.8500
 1.7920	92.7900
 1.7960	92.8500
 1.8000	92.7900
 1.8040	92.8800
 1.8080	92.8600
 1.8120	92.9300
 1.8160	92.9000
 1.8200	92.8700
 1.8240	92.8400
 1.8280	92.8700
 1.8320	92.8400
 1.8360	92.7500
 1.8400	92.7200
 1.8440	92.7400
 1.8480	92.7200
 1.8520	92.6400
 1.8560	92.6900
 1.8600	92.7400
 1.8640	92.6800
 1.8680	92.6600
 1.8720	92.6100
 1.8760	92.6000
 1.8800	92.6500
 1.8840	92.5900
 1.8880	92.5800
 1.8920	92.5800
 1.8960	92.6200
 1.9000	92.6700
 1.9040	92.5500
 1.9080	92.5900
 1.9120	92.6400
 1.9160	92.6900
 1.9200	92.6800
 1.9240	92.7200
 1.9280	92.7100
 1.9320	92.7100
 1.9360	92.7000
 1.9400	92.6900
 1.9440	92.7400
 1.9480	92.7900
 1.9520	92.7200
 1.9560	92.7500
 1.9600	92.7900
 1.9640	92.7800
 1.9680	92.7600
 1.9720	92.7400
 1.9760	92.7700
 1.9800	92.8000
 1.9840	92.9600
 1.9880	92.9300
 1.9920	93.0200
 1.9960	92.9400
 2.0000	93.0300
 2.0040	93.0100
 2.0080	92.9400
 2.0120	92.9400
 2.0160	93.0100
 2.0200	93.1300
 2.0240	93.1200
 2.0280	93.0400
 2.0320	93.1000
 2.0360	93.1100
 2.0400	93.2500
 2.0440	93.2300
 2.0480	93.2100
 2.0520	93.1600
 2.0560	93.2800
 2.0600	93.2400
 2.0640	93.3100
 2.0680	93.3300
 2.0720	93.3500
 2.0760	93.4200
 2.0800	93.5000
 2.0840	93.5200
 2.0880	93.4800
 2.0920	93.5500
 2.0960	93.5200
 2.1000	93.6000
 2.1040	93.6200
 2.1080	93.6300
 2.1120	93.7800
 2.1160	93.7500
 2.1200	93.8300
 2.1240	93.8300
 2.1280	93.7500
 2.1320	93.7100
 2.1360	93.7200
 2.1400	93.5600
 2.1440	93.5300
 2.1480	93.5100
 2.1520	93.3300
 2.1560	93.3400
 2.1600	93.2900
 2.1640	93.3300
 2.1680	93.2800
 2.1720	93.1700
 2.1760	93.1700
 2.1800	93.1200
 2.1840	93.1300
 2.1880	93.0900
 2.1920	93.0500
 2.1960	93.0200
 2.2000	93.0400
 2.2040	92.9900
 2.2080	93.0400
 2.2120	92.9500
 2.2160	93.0500
 2.2200	93.1400
 2.2240	93.1900
 2.2280	93.0900
 2.2320	93.1700
 2.2360	93.1400
 2.2400	93.2600
 2.2440	93.2200
 2.2480	93.2700
 2.2520	93.2500
 2.2560	93.3200
 2.2600	93.2900
 2.2640	93.2300
 2.2680	93.3300
 2.2720	93.3700
 2.2760	93.2900
 2.2800	93.3600
 2.2840	93.2600
 2.2880	93.2900
 2.2920	93.2900
 2.2960	93.4000
 2.3000	93.2100
 2.3040	93.1900
 2.3080	93.2600
 2.3120	93.3400
 2.3160	93.4200
 2.3200	93.4300
 2.3240	93.5400
 2.3280	93.5700
 2.3320	93.4900
 2.3360	93.5600
 2.3400	93.6200
 2.3440	93.6100
 2.3480	93.6900
 2.3520	93.6000
 2.3560	93.6200
 2.3600	93.6400
 2.3640	93.6500
 2.3680	93.6100
 2.3720	93.5900
 2.3760	93.6500
 2.3800	93.6400
 2.3840	93.6100
 2.3880	93.6300
 2.3920	93.6000
 2.3960	93.6000
 2.4000	93.6000
 2.4040	93.6000
 2.4080	93.5800
 2.4120	93.6300
 2.4160	93.6800
 2.4200	93.6600
 2.4240	93.7200
 2.4280	93.6600
 2.4320	93.7600
 2.4360	93.6900
 2.4400	93.6900
 2.4440	93.7300
 2.4480	93.7700
 2.4520	93.7300
 2.4560	93.7100
 2.4600	93.8100
 2.4640	93.8000
 2.4680	93.8400
 2.4720	93.9000
 2.4760	93.8400
 2.4800	94.0500
 2.4840	94.2600
 2.4880	94.3100
 2.4920	94.4600
 2.4960	94.6100
 2.5000	94.7900
