Name: Quercus virginana
Type: vegetation
Class: Tree
Genus: Quercus
Species: virginana
Sample No.: JPL174
Owner: JPL
Wavelength Range: TIR
Origin: 34.12893; -118.11242; WGS84
Collection Date: 10/3/2016
Description: Samples were collected at the Huntington Garden in San Marino California as part of a JPL Subcontract studying HyTES imagery. Samples were taken to JPL and processed within 48 hours of collection. The same leaves were processed in the Nicolet and then measured using the ASD.
Measurement: Hemispherical reflectance
First Column: X
Second Column: Y
X Units: Wavelength (micrometer)
Y Units: Reflectance (percentage)
First X Value: 2.501
Last X Value: 15.387
Number of X Values: 1737
Additional Information: vegetation.tree.quercus.virginana.tir.jpl174.jpl.nicolet.ancillary.txt

 2.5010	 5.0760
 2.5030	 5.1040
 2.5040	 5.1210
 2.5050	 5.0510
 2.5060	 5.0170
 2.5070	 4.9900
 2.5090	 5.0480
 2.5100	 5.0170
 2.5110	 5.0090
 2.5120	 4.9960
 2.5140	 5.0490
 2.5150	 5.0290
 2.5160	 5.0200
 2.5170	 5.0420
 2.5180	 5.0970
 2.5200	 5.0480
 2.5210	 5.0610
 2.5220	 5.0490
 2.5230	 5.0880
 2.5250	 5.0450
 2.5260	 5.0270
 2.5270	 4.9930
 2.5280	 5.0240
 2.5300	 4.9820
 2.5310	 4.9970
 2.5320	 4.9760
 2.5330	 4.9560
 2.5340	 4.9480
 2.5360	 5.0020
 2.5370	 5.0150
 2.5380	 5.0120
 2.5390	 4.9660
 2.5410	 4.9890
 2.5420	 4.9860
 2.5430	 5.0330
 2.5440	 5.0030
 2.5460	 5.0160
 2.5470	 5.0140
 2.5480	 5.0100
 2.5490	 4.9620
 2.5510	 4.9860
 2.5520	 4.9720
 2.5530	 5.0010
 2.5540	 4.9940
 2.5560	 4.9960
 2.5570	 4.9230
 2.5580	 4.9670
 2.5590	 5.0730
 2.5610	 5.1050
 2.5620	 5.0600
 2.5630	 5.0560
 2.5650	 5.0570
 2.5660	 5.0990
 2.5670	 5.0890
 2.5680	 5.0660
 2.5700	 4.9980
 2.5710	 5.0210
 2.5720	 4.9910
 2.5730	 5.0140
 2.5750	 5.0290
 2.5760	 5.0660
 2.5770	 5.0210
 2.5790	 5.0470
 2.5800	 5.0460
 2.5810	 5.0710
 2.5820	 5.0210
 2.5840	 5.0510
 2.5850	 5.0250
 2.5860	 5.0050
 2.5880	 4.9680
 2.5890	 4.9450
 2.5900	 4.9500
 2.5910	 5.0400
 2.5930	 4.9980
 2.5940	 4.9550
 2.5950	 4.9410
 2.5970	 5.0330
 2.5980	 5.0430
 2.5990	 5.0330
 2.6010	 4.9410
 2.6020	 4.9090
 2.6030	 4.9500
 2.6040	 5.0140
 2.6060	 4.9470
 2.6070	 4.9480
 2.6080	 4.9250
 2.6100	 4.9490
 2.6110	 4.9340
 2.6120	 4.9620
 2.6140	 4.9450
 2.6150	 4.9330
 2.6160	 4.9020
 2.6180	 4.9600
 2.6190	 4.9340
 2.6200	 4.9090
 2.6220	 4.8670
 2.6230	 4.8840
 2.6240	 4.8320
 2.6260	 4.8530
 2.6270	 4.8390
 2.6280	 4.8010
 2.6300	 4.7250
 2.6310	 4.7860
 2.6320	 4.8080
 2.6340	 4.8060
 2.6350	 4.7610
 2.6360	 4.7520
 2.6380	 4.7150
 2.6390	 4.7360
 2.6400	 4.7260
 2.6420	 4.7530
 2.6430	 4.7030
 2.6440	 4.6900
 2.6460	 4.7080
 2.6470	 4.7210
 2.6480	 4.7060
 2.6500	 4.7390
 2.6510	 4.6490
 2.6520	 4.6720
 2.6540	 4.6790
 2.6550	 4.6490
 2.6570	 4.6260
 2.6580	 4.6570
 2.6590	 4.6120
 2.6610	 4.6610
 2.6620	 4.5880
 2.6630	 4.6040
 2.6650	 4.5990
 2.6660	 4.5850
 2.6670	 4.5480
 2.6690	 4.5720
 2.6700	 4.5790
 2.6720	 4.6090
 2.6730	 4.5230
 2.6740	 4.5440
 2.6760	 4.4970
 2.6770	 4.5420
 2.6780	 4.5710
 2.6800	 4.5730
 2.6810	 4.5480
 2.6830	 4.5490
 2.6840	 4.4990
 2.6850	 4.5420
 2.6870	 4.5410
 2.6880	 4.5640
 2.6900	 4.5400
 2.6910	 4.5240
 2.6920	 4.4470
 2.6940	 4.4350
 2.6950	 4.4200
 2.6970	 4.4450
 2.6980	 4.4390
 2.6990	 4.4490
 2.7010	 4.4410
 2.7020	 4.5040
 2.7040	 4.4920
 2.7050	 4.4670
 2.7060	 4.4000
 2.7080	 4.4040
 2.7090	 4.3610
 2.7110	 4.3540
 2.7120	 4.3190
 2.7130	 4.3850
 2.7150	 4.3510
 2.7160	 4.3890
 2.7180	 4.3920
 2.7190	 4.3890
 2.7210	 4.3370
 2.7220	 4.3500
 2.7230	 4.3010
 2.7250	 4.2970
 2.7260	 4.3020
 2.7280	 4.3360
 2.7290	 4.3260
 2.7310	 4.3800
 2.7320	 4.3300
 2.7340	 4.2620
 2.7350	 4.1880
 2.7360	 4.2450
 2.7380	 4.2870
 2.7390	 4.2990
 2.7410	 4.2720
 2.7420	 4.3220
 2.7440	 4.2540
 2.7450	 4.2830
 2.7470	 4.2770
 2.7480	 4.2440
 2.7490	 4.2260
 2.7510	 4.2610
 2.7520	 4.2430
 2.7540	 4.2570
 2.7550	 4.2260
 2.7570	 4.2670
 2.7580	 4.2490
 2.7600	 4.2850
 2.7610	 4.2170
 2.7630	 4.2050
 2.7640	 4.1890
 2.7660	 4.2180
 2.7670	 4.2100
 2.7690	 4.2650
 2.7700	 4.2510
 2.7720	 4.2540
 2.7730	 4.2180
 2.7740	 4.2210
 2.7760	 4.1990
 2.7770	 4.2410
 2.7790	 4.1540
 2.7800	 4.2120
 2.7820	 4.2880
 2.7830	 4.2820
 2.7850	 4.2350
 2.7860	 4.2750
 2.7880	 4.2120
 2.7890	 4.1990
 2.7910	 4.2290
 2.7920	 4.2800
 2.7940	 4.2180
 2.7950	 4.1800
 2.7970	 4.1200
 2.7980	 4.1470
 2.8000	 4.1710
 2.8010	 4.2290
 2.8030	 4.1790
 2.8040	 4.1550
 2.8060	 4.1810
 2.8080	 4.2530
 2.8090	 4.2370
 2.8110	 4.2470
 2.8120	 4.1900
 2.8140	 4.2280
 2.8150	 4.2190
 2.8170	 4.2080
 2.8180	 4.1570
 2.8200	 4.1730
 2.8210	 4.1450
 2.8230	 4.1840
 2.8240	 4.1440
 2.8260	 4.1850
 2.8270	 4.2020
 2.8290	 4.2140
 2.8310	 4.1850
 2.8320	 4.2200
 2.8340	 4.1590
 2.8350	 4.1990
 2.8370	 4.2300
 2.8380	 4.2640
 2.8400	 4.2400
 2.8410	 4.2340
 2.8430	 4.1500
 2.8440	 4.1650
 2.8460	 4.1530
 2.8480	 4.2200
 2.8490	 4.1760
 2.8510	 4.1470
 2.8520	 4.1910
 2.8540	 4.2790
 2.8550	 4.2640
 2.8570	 4.2650
 2.8590	 4.2480
 2.8600	 4.2670
 2.8620	 4.2070
 2.8630	 4.1560
 2.8650	 4.1010
 2.8660	 4.2060
 2.8680	 4.2220
 2.8700	 4.2120
 2.8710	 4.2220
 2.8730	 4.2670
 2.8740	 4.2120
 2.8760	 4.2320
 2.8780	 4.2410
 2.8790	 4.2500
 2.8810	 4.2310
 2.8820	 4.2790
 2.8840	 4.2700
 2.8860	 4.2530
 2.8870	 4.2090
 2.8890	 4.2330
 2.8900	 4.1940
 2.8920	 4.2250
 2.8940	 4.2020
 2.8950	 4.2500
 2.8970	 4.2280
 2.8990	 4.2470
 2.9000	 4.2360
 2.9020	 4.2870
 2.9030	 4.2900
 2.9050	 4.3070
 2.9070	 4.3100
 2.9080	 4.3310
 2.9100	 4.2630
 2.9120	 4.3090
 2.9130	 4.2780
 2.9150	 4.2650
 2.9160	 4.2480
 2.9180	 4.2870
 2.9200	 4.2290
 2.9210	 4.2280
 2.9230	 4.2440
 2.9250	 4.3040
 2.9260	 4.2910
 2.9280	 4.3180
 2.9300	 4.3360
 2.9310	 4.3910
 2.9330	 4.2890
 2.9350	 4.2540
 2.9360	 4.2770
 2.9380	 4.3640
 2.9400	 4.3260
 2.9410	 4.3120
 2.9430	 4.2860
 2.9450	 4.3140
 2.9460	 4.3020
 2.9480	 4.3430
 2.9500	 4.3290
 2.9510	 4.3710
 2.9530	 4.3650
 2.9550	 4.3530
 2.9560	 4.3080
 2.9580	 4.3150
 2.9600	 4.2950
 2.9610	 4.3240
 2.9630	 4.3230
 2.9650	 4.3260
 2.9670	 4.3170
 2.9680	 4.4040
 2.9700	 4.3660
 2.9720	 4.3630
 2.9730	 4.3830
 2.9750	 4.4340
 2.9770	 4.4020
 2.9780	 4.4320
 2.9800	 4.4280
 2.9820	 4.4320
 2.9840	 4.3850
 2.9850	 4.3740
 2.9870	 4.3680
 2.9890	 4.4130
 2.9900	 4.3250
 2.9920	 4.3550
 2.9940	 4.3590
 2.9960	 4.3720
 2.9970	 4.3610
 2.9990	 4.4190
 3.0010	 4.4170
 3.0030	 4.3930
 3.0040	 4.3450
 3.0060	 4.4450
 3.0080	 4.4170
 3.0100	 4.3560
 3.0110	 4.2950
 3.0130	 4.3510
 3.0150	 4.4270
 3.0170	 4.4490
 3.0180	 4.3370
 3.0200	 4.3590
 3.0220	 4.4310
 3.0240	 4.4410
 3.0250	 4.3990
 3.0270	 4.3980
 3.0290	 4.3860
 3.0310	 4.3980
 3.0320	 4.3500
 3.0340	 4.3870
 3.0360	 4.3630
 3.0380	 4.3890
 3.0400	 4.3880
 3.0410	 4.4370
 3.0430	 4.4060
 3.0450	 4.4230
 3.0470	 4.4250
 3.0480	 4.4550
 3.0500	 4.3980
 3.0520	 4.3870
 3.0540	 4.3420
 3.0560	 4.3800
 3.0570	 4.3720
 3.0590	 4.4190
 3.0610	 4.3750
 3.0630	 4.3590
 3.0650	 4.3640
 3.0670	 4.4280
 3.0680	 4.4510
 3.0700	 4.4740
 3.0720	 4.4020
 3.0740	 4.4060
 3.0760	 4.4190
 3.0770	 4.4520
 3.0790	 4.3810
 3.0810	 4.3600
 3.0830	 4.3330
 3.0850	 4.3400
 3.0870	 4.3570
 3.0880	 4.4010
 3.0900	 4.4180
 3.0920	 4.4520
 3.0940	 4.3540
 3.0960	 4.3720
 3.0980	 4.3800
 3.1000	 4.3890
 3.1010	 4.3440
 3.1030	 4.3690
 3.1050	 4.3720
 3.1070	 4.3960
 3.1090	 4.3590
 3.1110	 4.3860
 3.1130	 4.3740
 3.1140	 4.3950
 3.1160	 4.3820
 3.1180	 4.3990
 3.1200	 4.3990
 3.1220	 4.4590
 3.1240	 4.3840
 3.1260	 4.3600
 3.1280	 4.3880
 3.1290	 4.4150
 3.1310	 4.3680
 3.1330	 4.4180
 3.1350	 4.3990
 3.1370	 4.3860
 3.1390	 4.3660
 3.1410	 4.4630
 3.1430	 4.4740
 3.1450	 4.4680
 3.1470	 4.4040
 3.1480	 4.4120
 3.1500	 4.3730
 3.1520	 4.4020
 3.1540	 4.3800
 3.1560	 4.4250
 3.1580	 4.4230
 3.1600	 4.4140
 3.1620	 4.4070
 3.1640	 4.4160
 3.1660	 4.3460
 3.1680	 4.3640
 3.1700	 4.3740
 3.1720	 4.4210
 3.1730	 4.4070
 3.1750	 4.4100
 3.1770	 4.4180
 3.1790	 4.4130
 3.1810	 4.3850
 3.1830	 4.4060
 3.1850	 4.3780
 3.1870	 4.3980
 3.1890	 4.4180
 3.1910	 4.4030
 3.1930	 4.3670
 3.1950	 4.4200
 3.1970	 4.3910
 3.1990	 4.3870
 3.2010	 4.3680
 3.2030	 4.4080
 3.2050	 4.4160
 3.2070	 4.4020
 3.2090	 4.3220
 3.2110	 4.3480
 3.2130	 4.3610
 3.2150	 4.3700
 3.2170	 4.3450
 3.2190	 4.3640
 3.2210	 4.3800
 3.2230	 4.3770
 3.2250	 4.3140
 3.2270	 4.3110
 3.2290	 4.3150
 3.2310	 4.3870
 3.2330	 4.3730
 3.2350	 4.3650
 3.2370	 4.3190
 3.2390	 4.3370
 3.2410	 4.3710
 3.2430	 4.3860
 3.2450	 4.3500
 3.2470	 4.3830
 3.2490	 4.3740
 3.2510	 4.3780
 3.2530	 4.3570
 3.2550	 4.3470
 3.2570	 4.3160
 3.2590	 4.2880
 3.2610	 4.2550
 3.2630	 4.3130
 3.2650	 4.3240
 3.2670	 4.3510
 3.2700	 4.3430
 3.2720	 4.3490
 3.2740	 4.3150
 3.2760	 4.3160
 3.2780	 4.2880
 3.2800	 4.3160
 3.2820	 4.3070
 3.2840	 4.3100
 3.2860	 4.3170
 3.2880	 4.3020
 3.2900	 4.2490
 3.2920	 4.2910
 3.2940	 4.2780
 3.2970	 4.2860
 3.2990	 4.2790
 3.3010	 4.3240
 3.3030	 4.3060
 3.3050	 4.3050
 3.3070	 4.2670
 3.3090	 4.2720
 3.3110	 4.2420
 3.3130	 4.2330
 3.3160	 4.1920
 3.3180	 4.2220
 3.3200	 4.2220
 3.3220	 4.2200
 3.3240	 4.1760
 3.3260	 4.1910
 3.3280	 4.2100
 3.3300	 4.2190
 3.3330	 4.1970
 3.3350	 4.2240
 3.3370	 4.1930
 3.3390	 4.1950
 3.3410	 4.1500
 3.3430	 4.1560
 3.3450	 4.1260
 3.3480	 4.1800
 3.3500	 4.1980
 3.3520	 4.1830
 3.3540	 4.1420
 3.3560	 4.1200
 3.3580	 4.0610
 3.3610	 4.0930
 3.3630	 4.1290
 3.3650	 4.1190
 3.3670	 4.0570
 3.3690	 4.0580
 3.3720	 4.0520
 3.3740	 4.0890
 3.3760	 4.0730
 3.3780	 4.0580
 3.3800	 4.0450
 3.3830	 4.0670
 3.3850	 4.0290
 3.3870	 4.0350
 3.3890	 4.0250
 3.3910	 4.0410
 3.3940	 4.0550
 3.3960	 4.0600
 3.3980	 4.0120
 3.4000	 4.0440
 3.4030	 4.0290
 3.4050	 4.0850
 3.4070	 4.1380
 3.4090	 4.2260
 3.4110	 4.2790
 3.4140	 4.3750
 3.4160	 4.4770
 3.4180	 4.5870
 3.4200	 4.6870
 3.4230	 4.9020
 3.4250	 5.1250
 3.4270	 5.3630
 3.4300	 5.4550
 3.4320	 5.3950
 3.4340	 5.2070
 3.4360	 5.0640
 3.4390	 4.9100
 3.4410	 4.8440
 3.4430	 4.8130
 3.4450	 4.8190
 3.4480	 4.7620
 3.4500	 4.7090
 3.4520	 4.6910
 3.4550	 4.7340
 3.4570	 4.7040
 3.4590	 4.6720
 3.4620	 4.6420
 3.4640	 4.6620
 3.4660	 4.6100
 3.4690	 4.6190
 3.4710	 4.5820
 3.4730	 4.5840
 3.4760	 4.5860
 3.4780	 4.5920
 3.4800	 4.5520
 3.4830	 4.5180
 3.4850	 4.4610
 3.4870	 4.4610
 3.4900	 4.4420
 3.4920	 4.4580
 3.4940	 4.4280
 3.4970	 4.4110
 3.4990	 4.4850
 3.5010	 4.6080
 3.5040	 4.6680
 3.5060	 4.8230
 3.5080	 5.0610
 3.5110	 5.2870
 3.5130	 5.2830
 3.5160	 5.1580
 3.5180	 4.9860
 3.5200	 4.9150
 3.5230	 4.8560
 3.5250	 4.8470
 3.5280	 4.7910
 3.5300	 4.7710
 3.5320	 4.7560
 3.5350	 4.6990
 3.5370	 4.6430
 3.5400	 4.6990
 3.5420	 4.6830
 3.5440	 4.6370
 3.5470	 4.5730
 3.5490	 4.6150
 3.5520	 4.5990
 3.5540	 4.5820
 3.5570	 4.5760
 3.5590	 4.5970
 3.5610	 4.5920
 3.5640	 4.6100
 3.5660	 4.5860
 3.5690	 4.5810
 3.5710	 4.5850
 3.5740	 4.6000
 3.5760	 4.5850
 3.5790	 4.5890
 3.5810	 4.6090
 3.5840	 4.6130
 3.5860	 4.5690
 3.5890	 4.5470
 3.5910	 4.5030
 3.5940	 4.5470
 3.5960	 4.5730
 3.5990	 4.5840
 3.6010	 4.5650
 3.6040	 4.5750
 3.6060	 4.5410
 3.6090	 4.5400
 3.6110	 4.5150
 3.6140	 4.5050
 3.6160	 4.4890
 3.6190	 4.5390
 3.6210	 4.5410
 3.6240	 4.5370
 3.6260	 4.4920
 3.6290	 4.5200
 3.6310	 4.5410
 3.6340	 4.5240
 3.6360	 4.5030
 3.6390	 4.5170
 3.6410	 4.4840
 3.6440	 4.4600
 3.6470	 4.4040
 3.6490	 4.4250
 3.6520	 4.4460
 3.6540	 4.4670
 3.6570	 4.4780
 3.6590	 4.5470
 3.6620	 4.5780
 3.6650	 4.5450
 3.6670	 4.5350
 3.6700	 4.5580
 3.6720	 4.5250
 3.6750	 4.5220
 3.6780	 4.4640
 3.6800	 4.4420
 3.6830	 4.4310
 3.6850	 4.4510
 3.6880	 4.4520
 3.6910	 4.4850
 3.6930	 4.4800
 3.6960	 4.4760
 3.6990	 4.4740
 3.7010	 4.5150
 3.7040	 4.5080
 3.7070	 4.4920
 3.7090	 4.4740
 3.7120	 4.5020
 3.7150	 4.5090
 3.7170	 4.5070
 3.7200	 4.4550
 3.7230	 4.4480
 3.7250	 4.4790
 3.7280	 4.5120
 3.7310	 4.4880
 3.7330	 4.4960
 3.7360	 4.5190
 3.7390	 4.5210
 3.7410	 4.4900
 3.7440	 4.4950
 3.7470	 4.4560
 3.7490	 4.4510
 3.7520	 4.4450
 3.7550	 4.4390
 3.7580	 4.4320
 3.7600	 4.4520
 3.7630	 4.4610
 3.7660	 4.4960
 3.7690	 4.4740
 3.7710	 4.4850
 3.7740	 4.4730
 3.7770	 4.4710
 3.7790	 4.4760
 3.7820	 4.4540
 3.7850	 4.4270
 3.7880	 4.4830
 3.7910	 4.4910
 3.7930	 4.4790
 3.7960	 4.4540
 3.7990	 4.4460
 3.8020	 4.4530
 3.8040	 4.4500
 3.8070	 4.4480
 3.8100	 4.4510
 3.8130	 4.4050
 3.8160	 4.4420
 3.8180	 4.4470
 3.8210	 4.4660
 3.8240	 4.4950
 3.8270	 4.4900
 3.8300	 4.4520
 3.8330	 4.4650
 3.8350	 4.4760
 3.8380	 4.4950
 3.8410	 4.4750
 3.8440	 4.4750
 3.8470	 4.4620
 3.8500	 4.4330
 3.8520	 4.4090
 3.8550	 4.4440
 3.8580	 4.4220
 3.8610	 4.4330
 3.8640	 4.4500
 3.8670	 4.4690
 3.8700	 4.4500
 3.8730	 4.4560
 3.8760	 4.4530
 3.8780	 4.4730
 3.8810	 4.4490
 3.8840	 4.4390
 3.8870	 4.4250
 3.8900	 4.4140
 3.8930	 4.3990
 3.8960	 4.4600
 3.8990	 4.4940
 3.9020	 4.5040
 3.9050	 4.4790
 3.9080	 4.4640
 3.9110	 4.4570
 3.9140	 4.4460
 3.9170	 4.4360
 3.9190	 4.4610
 3.9220	 4.4410
 3.9250	 4.4450
 3.9280	 4.4410
 3.9310	 4.4420
 3.9340	 4.4150
 3.9370	 4.4380
 3.9400	 4.4450
 3.9430	 4.4410
 3.9460	 4.4150
 3.9490	 4.4470
 3.9520	 4.4780
 3.9550	 4.4920
 3.9580	 4.4490
 3.9610	 4.4310
 3.9640	 4.4520
 3.9670	 4.4940
 3.9700	 4.4480
 3.9740	 4.4440
 3.9770	 4.4510
 3.9800	 4.4500
 3.9830	 4.4270
 3.9860	 4.4490
 3.9890	 4.4610
 3.9920	 4.4780
 3.9950	 4.4720
 3.9980	 4.4520
 4.0010	 4.4370
 4.0040	 4.4490
 4.0070	 4.4580
 4.0100	 4.4640
 4.0140	 4.4540
 4.0170	 4.4470
 4.0200	 4.4340
 4.0230	 4.4170
 4.0260	 4.3890
 4.0290	 4.4360
 4.0320	 4.4380
 4.0350	 4.4450
 4.0390	 4.4570
 4.0420	 4.4730
 4.0450	 4.4320
 4.0480	 4.4250
 4.0510	 4.4270
 4.0540	 4.4480
 4.0570	 4.4790
 4.0610	 4.4720
 4.0640	 4.4490
 4.0670	 4.4610
 4.0700	 4.4330
 4.0730	 4.4230
 4.0770	 4.4200
 4.0800	 4.4470
 4.0830	 4.4480
 4.0860	 4.4470
 4.0890	 4.4260
 4.0930	 4.4600
 4.0960	 4.4650
 4.0990	 4.4710
 4.1020	 4.4420
 4.1060	 4.4480
 4.1090	 4.4610
 4.1120	 4.4600
 4.1150	 4.4450
 4.1190	 4.4820
 4.1220	 4.4740
 4.1250	 4.4520
 4.1290	 4.4300
 4.1320	 4.4370
 4.1350	 4.4320
 4.1380	 4.4140
 4.1420	 4.4030
 4.1450	 4.4370
 4.1480	 4.4210
 4.1520	 4.4230
 4.1550	 4.4460
 4.1580	 4.4470
 4.1620	 4.4410
 4.1650	 4.4430
 4.1680	 4.4210
 4.1720	 4.4480
 4.1750	 4.4560
 4.1780	 4.4570
 4.1820	 4.4240
 4.1850	 4.4010
 4.1890	 4.4040
 4.1920	 4.4100
 4.1950	 4.3970
 4.1990	 4.4070
 4.2020	 4.4030
 4.2060	 4.3900
 4.2090	 4.3410
 4.2120	 4.3330
 4.2160	 4.3640
 4.2190	 4.3460
 4.2230	 4.3070
 4.2260	 4.2860
 4.2300	 4.3000
 4.2330	 4.3230
 4.2360	 4.2700
 4.2400	 4.3000
 4.2430	 4.3490
 4.2470	 4.3770
 4.2500	 4.3480
 4.2540	 4.3940
 4.2570	 4.4180
 4.2610	 4.4000
 4.2640	 4.3460
 4.2680	 4.2790
 4.2710	 4.2690
 4.2750	 4.3030
 4.2780	 4.3300
 4.2820	 4.3680
 4.2850	 4.3560
 4.2890	 4.3840
 4.2930	 4.4050
 4.2960	 4.3830
 4.3000	 4.3320
 4.3030	 4.3140
 4.3070	 4.3840
 4.3100	 4.4470
 4.3140	 4.4120
 4.3180	 4.3920
 4.3210	 4.3470
 4.3250	 4.3040
 4.3280	 4.3540
 4.3320	 4.4270
 4.3360	 4.4210
 4.3390	 4.3870
 4.3430	 4.3720
 4.3470	 4.3900
 4.3500	 4.3990
 4.3540	 4.4130
 4.3580	 4.4070
 4.3610	 4.3860
 4.3650	 4.3610
 4.3690	 4.3820
 4.3720	 4.4060
 4.3760	 4.3950
 4.3800	 4.3830
 4.3830	 4.3900
 4.3870	 4.3990
 4.3910	 4.4050
 4.3940	 4.3530
 4.3980	 4.3710
 4.4020	 4.3980
 4.4060	 4.3870
 4.4090	 4.4170
 4.4130	 4.4410
 4.4170	 4.4090
 4.4210	 4.3860
 4.4240	 4.3790
 4.4280	 4.3780
 4.4320	 4.3810
 4.4360	 4.3920
 4.4400	 4.3610
 4.4430	 4.3640
 4.4470	 4.3670
 4.4510	 4.3500
 4.4550	 4.3560
 4.4590	 4.3690
 4.4630	 4.3350
 4.4660	 4.3400
 4.4700	 4.3730
 4.4740	 4.3600
 4.4780	 4.3160
 4.4820	 4.3260
 4.4860	 4.3500
 4.4900	 4.3520
 4.4930	 4.3360
 4.4970	 4.3600
 4.5010	 4.3660
 4.5050	 4.3530
 4.5090	 4.3440
 4.5130	 4.3440
 4.5170	 4.3520
 4.5210	 4.3420
 4.5250	 4.3170
 4.5290	 4.3320
 4.5330	 4.3440
 4.5370	 4.3270
 4.5410	 4.3470
 4.5450	 4.3660
 4.5490	 4.3420
 4.5530	 4.3030
 4.5570	 4.3030
 4.5610	 4.3160
 4.5650	 4.3090
 4.5690	 4.3330
 4.5730	 4.3420
 4.5770	 4.3510
 4.5810	 4.3420
 4.5850	 4.3350
 4.5890	 4.3460
 4.5930	 4.3410
 4.5970	 4.3050
 4.6010	 4.3130
 4.6050	 4.3340
 4.6090	 4.3560
 4.6130	 4.3430
 4.6170	 4.3270
 4.6220	 4.3120
 4.6260	 4.2920
 4.6300	 4.2970
 4.6340	 4.3200
 4.6380	 4.3200
 4.6420	 4.3020
 4.6460	 4.3060
 4.6510	 4.3130
 4.6550	 4.3250
 4.6590	 4.3480
 4.6630	 4.3320
 4.6670	 4.3240
 4.6720	 4.3270
 4.6760	 4.3080
 4.6800	 4.2920
 4.6840	 4.2930
 4.6880	 4.3180
 4.6930	 4.3460
 4.6970	 4.3250
 4.7010	 4.3050
 4.7050	 4.3200
 4.7100	 4.3050
 4.7140	 4.2890
 4.7180	 4.3010
 4.7230	 4.3070
 4.7270	 4.2990
 4.7310	 4.2970
 4.7360	 4.2870
 4.7400	 4.3110
 4.7440	 4.2950
 4.7490	 4.2750
 4.7530	 4.2980
 4.7570	 4.3110
 4.7620	 4.3130
 4.7660	 4.3260
 4.7700	 4.3200
 4.7750	 4.2850
 4.7790	 4.2730
 4.7840	 4.3080
 4.7880	 4.3290
 4.7920	 4.3240
 4.7970	 4.3030
 4.8010	 4.2900
 4.8060	 4.2960
 4.8100	 4.3030
 4.8150	 4.3080
 4.8190	 4.2800
 4.8240	 4.2680
 4.8280	 4.2850
 4.8330	 4.2830
 4.8370	 4.2560
 4.8420	 4.2680
 4.8460	 4.3160
 4.8510	 4.3340
 4.8550	 4.3040
 4.8600	 4.2730
 4.8640	 4.2840
 4.8690	 4.2950
 4.8740	 4.2990
 4.8780	 4.2950
 4.8830	 4.2990
 4.8870	 4.3060
 4.8920	 4.3100
 4.8970	 4.3110
 4.9010	 4.2880
 4.9060	 4.2720
 4.9100	 4.2950
 4.9150	 4.3070
 4.9200	 4.2960
 4.9240	 4.2790
 4.9290	 4.2610
 4.9340	 4.2830
 4.9390	 4.2940
 4.9430	 4.2980
 4.9480	 4.3250
 4.9530	 4.3210
 4.9570	 4.3090
 4.9620	 4.3070
 4.9670	 4.3120
 4.9720	 4.2780
 4.9760	 4.2550
 4.9810	 4.2740
 4.9860	 4.3150
 4.9910	 4.3310
 4.9960	 4.3140
 5.0000	 4.2810
 5.0050	 4.2640
 5.0100	 4.2910
 5.0150	 4.3150
 5.0200	 4.3080
 5.0250	 4.3100
 5.0300	 4.3120
 5.0340	 4.3020
 5.0390	 4.2870
 5.0440	 4.2960
 5.0490	 4.2950
 5.0540	 4.2850
 5.0590	 4.2690
 5.0640	 4.2650
 5.0690	 4.2750
 5.0740	 4.2530
 5.0790	 4.2400
 5.0840	 4.2660
 5.0890	 4.2930
 5.0940	 4.3380
 5.0990	 4.3190
 5.1040	 4.2780
 5.1090	 4.2480
 5.1140	 4.2340
 5.1190	 4.2450
 5.1240	 4.2820
 5.1290	 4.2780
 5.1340	 4.2670
 5.1390	 4.2250
 5.1440	 4.2540
 5.1490	 4.2560
 5.1550	 4.2480
 5.1600	 4.2390
 5.1650	 4.2440
 5.1700	 4.2640
 5.1750	 4.2940
 5.1800	 4.3090
 5.1850	 4.2840
 5.1910	 4.2510
 5.1960	 4.2510
 5.2010	 4.2410
 5.2060	 4.2490
 5.2110	 4.2360
 5.2170	 4.2380
 5.2220	 4.2280
 5.2270	 4.2300
 5.2330	 4.2540
 5.2380	 4.2410
 5.2430	 4.2270
 5.2480	 4.2490
 5.2540	 4.2510
 5.2590	 4.2470
 5.2640	 4.2420
 5.2700	 4.2580
 5.2750	 4.2280
 5.2800	 4.2170
 5.2860	 4.2000
 5.2910	 4.1960
 5.2970	 4.2140
 5.3020	 4.2330
 5.3080	 4.2260
 5.3130	 4.2300
 5.3180	 4.2230
 5.3240	 4.2190
 5.3290	 4.2000
 5.3350	 4.2080
 5.3400	 4.2210
 5.3460	 4.2330
 5.3510	 4.2290
 5.3570	 4.2340
 5.3620	 4.2180
 5.3680	 4.2240
 5.3740	 4.1920
 5.3790	 4.1670
 5.3850	 4.1420
 5.3900	 4.1470
 5.3960	 4.1360
 5.4010	 4.1720
 5.4070	 4.1790
 5.4130	 4.1490
 5.4180	 4.1290
 5.4240	 4.1400
 5.4300	 4.1250
 5.4350	 4.1420
 5.4410	 4.1290
 5.4470	 4.1090
 5.4530	 4.1080
 5.4580	 4.1270
 5.4640	 4.1180
 5.4700	 4.1370
 5.4760	 4.1340
 5.4810	 4.1180
 5.4870	 4.0880
 5.4930	 4.1130
 5.4990	 4.1180
 5.5050	 4.1040
 5.5110	 4.0870
 5.5160	 4.0930
 5.5220	 4.0490
 5.5280	 4.0390
 5.5340	 4.0320
 5.5400	 4.0430
 5.5460	 4.0240
 5.5520	 4.0320
 5.5580	 4.0340
 5.5640	 4.0160
 5.5700	 3.9980
 5.5760	 3.9650
 5.5820	 3.9440
 5.5880	 3.9700
 5.5940	 3.9700
 5.6000	 3.9750
 5.6060	 3.9340
 5.6120	 3.9180
 5.6180	 3.8980
 5.6240	 3.9020
 5.6300	 3.8810
 5.6360	 3.8470
 5.6420	 3.8190
 5.6490	 3.8430
 5.6550	 3.8090
 5.6610	 3.7780
 5.6670	 3.7390
 5.6730	 3.7570
 5.6800	 3.7450
 5.6860	 3.7040
 5.6920	 3.6640
 5.6980	 3.6830
 5.7050	 3.6550
 5.7110	 3.6300
 5.7170	 3.5880
 5.7230	 3.5850
 5.7300	 3.5860
 5.7360	 3.6270
 5.7420	 3.6430
 5.7490	 3.6820
 5.7550	 3.7080
 5.7620	 3.7520
 5.7680	 3.7910
 5.7740	 3.9110
 5.7810	 3.9620
 5.7870	 4.0250
 5.7940	 4.0690
 5.8000	 4.1510
 5.8070	 4.1700
 5.8130	 4.2060
 5.8200	 4.2170
 5.8260	 4.2600
 5.8330	 4.3060
 5.8390	 4.3700
 5.8460	 4.3720
 5.8530	 4.3830
 5.8590	 4.3710
 5.8660	 4.4400
 5.8730	 4.4730
 5.8790	 4.4800
 5.8860	 4.4440
 5.8930	 4.4450
 5.8990	 4.4340
 5.9060	 4.4680
 5.9130	 4.4490
 5.9190	 4.4580
 5.9260	 4.4060
 5.9330	 4.3850
 5.9400	 4.3560
 5.9470	 4.3840
 5.9530	 4.3600
 5.9600	 4.3520
 5.9670	 4.3190
 5.9740	 4.3520
 5.9810	 4.3290
 5.9880	 4.3160
 5.9950	 4.2840
 6.0020	 4.3150
 6.0090	 4.2720
 6.0160	 4.2780
 6.0230	 4.2980
 6.0300	 4.3250
 6.0370	 4.2840
 6.0440	 4.2610
 6.0510	 4.2490
 6.0580	 4.3080
 6.0650	 4.2870
 6.0720	 4.2770
 6.0790	 4.2530
 6.0860	 4.2910
 6.0930	 4.2710
 6.1010	 4.3000
 6.1080	 4.2810
 6.1150	 4.2880
 6.1220	 4.3000
 6.1290	 4.3560
 6.1370	 4.3180
 6.1440	 4.2690
 6.1510	 4.2600
 6.1580	 4.3410
 6.1660	 4.3100
 6.1730	 4.2850
 6.1800	 4.2490
 6.1880	 4.2920
 6.1950	 4.3150
 6.2030	 4.3850
 6.2100	 4.3490
 6.2180	 4.3830
 6.2250	 4.3930
 6.2320	 4.3990
 6.2400	 4.3810
 6.2480	 4.4340
 6.2550	 4.3920
 6.2630	 4.3770
 6.2700	 4.3800
 6.2780	 4.4250
 6.2850	 4.4090
 6.2930	 4.4180
 6.3010	 4.3930
 6.3080	 4.4280
 6.3160	 4.4070
 6.3240	 4.4250
 6.3310	 4.3760
 6.3390	 4.3590
 6.3470	 4.3150
 6.3550	 4.3770
 6.3620	 4.3670
 6.3700	 4.3790
 6.3780	 4.3290
 6.3860	 4.3360
 6.3940	 4.3400
 6.4020	 4.3430
 6.4100	 4.2740
 6.4180	 4.3120
 6.4260	 4.2740
 6.4340	 4.2490
 6.4420	 4.2270
 6.4500	 4.2710
 6.4580	 4.2520
 6.4660	 4.2660
 6.4740	 4.2280
 6.4820	 4.2480
 6.4900	 4.2030
 6.4980	 4.2030
 6.5060	 4.1710
 6.5140	 4.1830
 6.5230	 4.1530
 6.5310	 4.1450
 6.5390	 4.1360
 6.5470	 4.1290
 6.5560	 4.0820
 6.5640	 4.1070
 6.5720	 4.0560
 6.5800	 4.0260
 6.5890	 3.9860
 6.5970	 4.0610
 6.6060	 4.1060
 6.6140	 4.1400
 6.6230	 4.0960
 6.6310	 4.1460
 6.6390	 4.1590
 6.6480	 4.2070
 6.6570	 4.1950
 6.6650	 4.2180
 6.6740	 4.1750
 6.6820	 4.1640
 6.6910	 4.1570
 6.7000	 4.1700
 6.7080	 4.1200
 6.7170	 4.1580
 6.7260	 4.1200
 6.7340	 4.1170
 6.7430	 4.0840
 6.7520	 4.0860
 6.7610	 4.0290
 6.7690	 4.0460
 6.7780	 4.0400
 6.7870	 4.0880
 6.7960	 4.0340
 6.8050	 4.0520
 6.8140	 4.0290
 6.8230	 4.0770
 6.8320	 4.1350
 6.8410	 4.2380
 6.8500	 4.1750
 6.8590	 4.1480
 6.8680	 4.1620
 6.8770	 4.2370
 6.8860	 4.2170
 6.8960	 4.2330
 6.9050	 4.2120
 6.9140	 4.2450
 6.9230	 4.2040
 6.9320	 4.2360
 6.9420	 4.2470
 6.9510	 4.2680
 6.9600	 4.2200
 6.9700	 4.2810
 6.9790	 4.2680
 6.9880	 4.3100
 6.9980	 4.2640
 7.0070	 4.2920
 7.0170	 4.2540
 7.0260	 4.2830
 7.0360	 4.2430
 7.0450	 4.2640
 7.0550	 4.2070
 7.0650	 4.2130
 7.0740	 4.2420
 7.0840	 4.3100
 7.0940	 4.2690
 7.1030	 4.2940
 7.1130	 4.2200
 7.1230	 4.2310
 7.1330	 4.1940
 7.1420	 4.1880
 7.1520	 4.1520
 7.1620	 4.1930
 7.1720	 4.1420
 7.1820	 4.1760
 7.1920	 4.1460
 7.2020	 4.1840
 7.2120	 4.1710
 7.2220	 4.2190
 7.2320	 4.1670
 7.2420	 4.1840
 7.2520	 4.1400
 7.2620	 4.1850
 7.2730	 4.1500
 7.2830	 4.1790
 7.2930	 4.1570
 7.3030	 4.1940
 7.3140	 4.1680
 7.3240	 4.2300
 7.3340	 4.2240
 7.3450	 4.2310
 7.3550	 4.1670
 7.3660	 4.2010
 7.3760	 4.2250
 7.3870	 4.3080
 7.3970	 4.2810
 7.4080	 4.3100
 7.4180	 4.2420
 7.4290	 4.2680
 7.4400	 4.2560
 7.4500	 4.3030
 7.4610	 4.2220
 7.4720	 4.2370
 7.4830	 4.2130
 7.4930	 4.2610
 7.5040	 4.2360
 7.5150	 4.2430
 7.5260	 4.1860
 7.5370	 4.2440
 7.5480	 4.2120
 7.5590	 4.2480
 7.5700	 4.1800
 7.5810	 4.1900
 7.5920	 4.1400
 7.6030	 4.1550
 7.6140	 4.1320
 7.6260	 4.1990
 7.6370	 4.1840
 7.6480	 4.2320
 7.6590	 4.1740
 7.6710	 4.1600
 7.6820	 4.1430
 7.6940	 4.2240
 7.7050	 4.2300
 7.7160	 4.2650
 7.7280	 4.2240
 7.7390	 4.2800
 7.7510	 4.2320
 7.7630	 4.2350
 7.7740	 4.1790
 7.7860	 4.2110
 7.7980	 4.1180
 7.8090	 4.1800
 7.8210	 4.1900
 7.8330	 4.2400
 7.8450	 4.2130
 7.8570	 4.2490
 7.8690	 4.1600
 7.8810	 4.2300
 7.8930	 4.2620
 7.9050	 4.3240
 7.9170	 4.2800
 7.9290	 4.3140
 7.9410	 4.2240
 7.9530	 4.2220
 7.9650	 4.1790
 7.9780	 4.2430
 7.9900	 4.1930
 8.0020	 4.2150
 8.0150	 4.1650
 8.0270	 4.2270
 8.0390	 4.1870
 8.0520	 4.1870
 8.0640	 4.1120
 8.0770	 4.1260
 8.0900	 4.0910
 8.1020	 4.1560
 8.1150	 4.0660
 8.1280	 4.0930
 8.1400	 4.0690
 8.1530	 4.1450
 8.1660	 4.0610
 8.1790	 4.1100
 8.1920	 4.0740
 8.2050	 4.1140
 8.2180	 3.9930
 8.2310	 4.0640
 8.2440	 4.0120
 8.2570	 4.0990
 8.2700	 4.0490
 8.2830	 4.1350
 8.2970	 4.1020
 8.3100	 4.1740
 8.3230	 4.1190
 8.3370	 4.1610
 8.3500	 4.0770
 8.3640	 4.1570
 8.3770	 4.1140
 8.3910	 4.1050
 8.4040	 4.0010
 8.4180	 4.0870
 8.4320	 4.0260
 8.4450	 4.0970
 8.4590	 4.0580
 8.4730	 4.1220
 8.4870	 4.0620
 8.5010	 4.1890
 8.5150	 4.1670
 8.5290	 4.2330
 8.5430	 4.2180
 8.5570	 4.3420
 8.5710	 4.3000
 8.5850	 4.3950
 8.5990	 4.3510
 8.6140	 4.4400
 8.6280	 4.3940
 8.6420	 4.4110
 8.6570	 4.3140
 8.6710	 4.3910
 8.6860	 4.3100
 8.7000	 4.3760
 8.7150	 4.3350
 8.7300	 4.3580
 8.7440	 4.2230
 8.7590	 4.3040
 8.7740	 4.2220
 8.7890	 4.2280
 8.8040	 4.1580
 8.8190	 4.2140
 8.8340	 4.1000
 8.8490	 4.1240
 8.8640	 4.0420
 8.8790	 4.1080
 8.8940	 4.0290
 8.9100	 4.0480
 8.9250	 3.9030
 8.9400	 3.9830
 8.9560	 3.9190
 8.9710	 4.0390
 8.9870	 3.9240
 9.0020	 3.9800
 9.0180	 3.9420
 9.0340	 4.0310
 9.0500	 4.0110
 9.0650	 4.1670
 9.0810	 4.1180
 9.0970	 4.1840
 9.1130	 4.0680
 9.1290	 4.1290
 9.1450	 4.0430
 9.1620	 4.1530
 9.1780	 4.1710
 9.1940	 4.2840
 9.2100	 4.2120
 9.2270	 4.2990
 9.2430	 4.2270
 9.2600	 4.3900
 9.2760	 4.2760
 9.2930	 4.3150
 9.3100	 4.2520
 9.3260	 4.3560
 9.3430	 4.3540
 9.3600	 4.5080
 9.3770	 4.3730
 9.3940	 4.4270
 9.4110	 4.3410
 9.4280	 4.4860
 9.4450	 4.4480
 9.4620	 4.5590
 9.4800	 4.5030
 9.4970	 4.5690
 9.5150	 4.5080
 9.5320	 4.6570
 9.5500	 4.6060
 9.5670	 4.6510
 9.5850	 4.5740
 9.6030	 4.7770
 9.6200	 4.7490
 9.6380	 4.8320
 9.6560	 4.7270
 9.6740	 4.7910
 9.6920	 4.7020
 9.7110	 4.8020
 9.7290	 4.7020
 9.7470	 4.7990
 9.7650	 4.7380
 9.7840	 4.8620
 9.8020	 4.7740
 9.8210	 4.7900
 9.8390	 4.7060
 9.8580	 4.8250
 9.8770	 4.7350
 9.8960	 4.8120
 9.9150	 4.7360
 9.9340	 4.8570
 9.9530	 4.7950
 9.9720	 4.8650
 9.9910	 4.7460
10.0100	 4.7950
10.0300	 4.7030
10.0490	 4.7770
10.0690	 4.7080
10.0880	 4.7390
10.1080	 4.5770
10.1280	 4.6330
10.1480	 4.5400
10.1670	 4.6320
10.1870	 4.5580
10.2070	 4.5910
10.2280	 4.4680
10.2480	 4.5330
10.2680	 4.4490
10.2890	 4.5540
10.3090	 4.5320
10.3300	 4.6370
10.3500	 4.5790
10.3710	 4.6730
10.3920	 4.5770
10.4120	 4.7120
10.4330	 4.6610
10.4540	 4.6820
10.4760	 4.5270
10.4970	 4.6310
10.5180	 4.6140
10.5390	 4.6880
10.5610	 4.5630
10.5820	 4.6530
10.6040	 4.6140
10.6260	 4.7210
10.6480	 4.6110
10.6700	 4.7140
10.6920	 4.6160
10.7140	 4.6970
10.7360	 4.6680
10.7580	 4.8060
10.7800	 4.6670
10.8030	 4.7730
10.8250	 4.6890
10.8480	 4.7580
10.8710	 4.6490
10.8940	 4.7510
10.9170	 4.6140
10.9400	 4.6650
10.9630	 4.6290
10.9860	 4.7600
11.0090	 4.6280
11.0330	 4.6600
11.0560	 4.5970
11.0800	 4.7800
11.1040	 4.6730
11.1270	 4.7580
11.1510	 4.6840
11.1750	 4.8010
11.2000	 4.7050
11.2240	 4.8760
11.2480	 4.7810
11.2730	 4.7960
11.2970	 4.6460
11.3220	 4.7420
11.3470	 4.7080
11.3720	 4.8340
11.3970	 4.7300
11.4220	 4.8820
11.4470	 4.8390
11.4720	 4.9010
11.4980	 4.7860
11.5230	 4.8020
11.5490	 4.6110
11.5750	 4.7280
11.6000	 4.6700
11.6260	 4.8070
11.6530	 4.6570
11.6790	 4.7060
11.7050	 4.5780
11.7320	 4.6770
11.7580	 4.5660
11.7850	 4.6670
11.8120	 4.4330
11.8390	 4.4160
11.8660	 4.3510
11.8930	 4.5290
11.9200	 4.4150
11.9480	 4.4870
11.9760	 4.3310
12.0030	 4.4530
12.0310	 4.3650
12.0590	 4.4820
12.0870	 4.3280
12.1150	 4.4680
12.1440	 4.3160
12.1720	 4.3900
12.2010	 4.2680
12.2300	 4.5300
12.2590	 4.4310
12.2880	 4.4710
12.3170	 4.2990
12.3460	 4.4710
12.3760	 4.3560
12.4050	 4.5250
12.4350	 4.3680
12.4650	 4.4400
12.4950	 4.3190
12.5250	 4.5750
12.5550	 4.4340
12.5860	 4.5000
12.6170	 4.3750
12.6470	 4.4770
12.6780	 4.2860
12.7090	 4.4590
12.7410	 4.2900
12.7720	 4.4620
12.8030	 4.3440
12.8350	 4.4680
12.8670	 4.3540
12.8990	 4.5300
12.9310	 4.4220
12.9640	 4.5610
12.9960	 4.4260
13.0290	 4.5720
13.0610	 4.3970
13.0940	 4.5370
13.1280	 4.4120
13.1610	 4.5300
13.1940	 4.3560
13.2280	 4.5600
13.2620	 4.3600
13.2960	 4.4220
13.3300	 4.2260
13.3640	 4.4350
13.3990	 4.2170
13.4340	 4.3250
13.4690	 4.1160
13.5040	 4.2780
13.5390	 4.1510
13.5740	 4.3750
13.6100	 4.1890
13.6460	 4.3440
13.6820	 4.2100
13.7180	 4.3020
13.7540	 4.0020
13.7910	 4.1920
13.8280	 4.0910
13.8650	 4.3380
13.9020	 4.1590
13.9390	 4.4240
13.9770	 4.3060
14.0150	 4.4990
14.0530	 4.1860
14.0910	 4.2870
14.1290	 3.9870
14.1680	 4.2840
14.2070	 4.2620
14.2460	 4.5330
14.2850	 4.2000
14.3240	 4.2670
14.3640	 4.0180
14.4040	 4.3650
14.4440	 4.1700
14.4840	 4.3810
14.5250	 4.1450
14.5660	 4.3080
14.6070	 3.8350
14.6480	 4.1060
14.6900	 3.9740
14.7310	 4.2320
14.7730	 3.8520
14.8150	 4.2230
14.8580	 3.9090
14.9010	 4.1990
14.9440	 3.7880
14.9870	 4.1490
15.0300	 3.7760
15.0740	 4.1780
15.1180	 3.9570
15.1620	 4.3050
15.2060	 3.9280
15.2510	 4.4040
15.2960	 4.0160
15.3410	 4.1820
15.3870	 3.7550
