Name: Quercus douglasii 1
Type: vegetation
Class: Tree
Genus: Quercus
Species: douglasii
Sample No.: VH269
Owner: UCSB
Wavelength Range: TIR
Origin: 34.7153; -120.0598; WGS84
Collection Date: 11/2/2013
Description: Samples were collected as part of the HyspIRI Airborne Campaign. 48 individual plants were sampled in three times in 2013 - spring  summer  and fall. The name of the sample includes a 1  2  or 3 which references a different individual of the species. Samples were taken to JPL and processed within 48 hours of collection. The same leaves were processed in the Nicolet and then measured using the ASD.
Measurement: Hemispherical reflectance
First Column: X
Second Column: Y
X Units: Wavelength (micrometers)
Y Units: Reflectance (percentage)
First X Value: 2.501
Last X Value: 15.387
Number of X Values: 1737
Additional Information: vegetation.tree.quercus.douglasii.tir.vh269.ucsb.nicolet.ancillary.txt

 2.5010	 7.6490
 2.5030	 7.7740
 2.5040	 7.8710
 2.5050	 7.8540
 2.5060	 7.7800
 2.5070	 7.7540
 2.5090	 7.7460
 2.5100	 7.8080
 2.5110	 7.8180
 2.5120	 7.6330
 2.5140	 7.6360
 2.5150	 7.7280
 2.5160	 7.6270
 2.5170	 7.5210
 2.5180	 7.6110
 2.5200	 7.6320
 2.5210	 7.5280
 2.5220	 7.5930
 2.5230	 7.6940
 2.5250	 7.5880
 2.5260	 7.6540
 2.5270	 7.6090
 2.5280	 7.3980
 2.5290	 7.4870
 2.5310	 7.8420
 2.5320	 7.8470
 2.5330	 7.6450
 2.5340	 7.6510
 2.5360	 7.6320
 2.5370	 7.6290
 2.5380	 7.6810
 2.5390	 7.7210
 2.5410	 7.6670
 2.5420	 7.5760
 2.5430	 7.6690
 2.5440	 7.8090
 2.5460	 7.7530
 2.5470	 7.6510
 2.5480	 7.7410
 2.5490	 7.8240
 2.5510	 7.7440
 2.5520	 7.4610
 2.5530	 7.3480
 2.5540	 7.4540
 2.5560	 7.6040
 2.5570	 7.7360
 2.5580	 7.7950
 2.5590	 7.7260
 2.5610	 7.7690
 2.5620	 7.8860
 2.5630	 7.7600
 2.5640	 7.7650
 2.5660	 7.8400
 2.5670	 7.8590
 2.5680	 7.9950
 2.5700	 7.9750
 2.5710	 7.7570
 2.5720	 7.7310
 2.5730	 8.0070
 2.5750	 8.0040
 2.5760	 7.7940
 2.5770	 7.7750
 2.5790	 7.7480
 2.5800	 7.7510
 2.5810	 7.8370
 2.5820	 7.7870
 2.5840	 7.9190
 2.5850	 7.9730
 2.5860	 7.8610
 2.5880	 7.7690
 2.5890	 7.7070
 2.5900	 7.6880
 2.5910	 7.7120
 2.5930	 7.6980
 2.5940	 7.7200
 2.5950	 7.7340
 2.5970	 7.6560
 2.5980	 7.6120
 2.5990	 7.6620
 2.6000	 7.6640
 2.6020	 7.6720
 2.6030	 7.6830
 2.6040	 7.6590
 2.6060	 7.6420
 2.6070	 7.4300
 2.6080	 7.3440
 2.6100	 7.4480
 2.6110	 7.3690
 2.6120	 7.2610
 2.6140	 7.3160
 2.6150	 7.2610
 2.6160	 7.2250
 2.6180	 7.2280
 2.6190	 7.2750
 2.6200	 7.3830
 2.6220	 7.2310
 2.6230	 7.1750
 2.6240	 7.1900
 2.6260	 7.3160
 2.6270	 7.3140
 2.6280	 7.1710
 2.6300	 7.2090
 2.6310	 7.1880
 2.6320	 7.0370
 2.6340	 7.0630
 2.6350	 7.0370
 2.6360	 6.9580
 2.6380	 6.8750
 2.6390	 6.8640
 2.6400	 6.9520
 2.6420	 6.8890
 2.6430	 6.7830
 2.6440	 6.7960
 2.6460	 6.8150
 2.6470	 6.8040
 2.6480	 6.6630
 2.6500	 6.5520
 2.6510	 6.5210
 2.6520	 6.5220
 2.6540	 6.4820
 2.6550	 6.4580
 2.6560	 6.4290
 2.6580	 6.4440
 2.6590	 6.3800
 2.6610	 6.4350
 2.6620	 6.4540
 2.6630	 6.4710
 2.6650	 6.4920
 2.6660	 6.5280
 2.6670	 6.5420
 2.6690	 6.4330
 2.6700	 6.2850
 2.6720	 6.1740
 2.6730	 6.2400
 2.6740	 6.2710
 2.6760	 6.1870
 2.6770	 6.0980
 2.6780	 6.0270
 2.6800	 6.1320
 2.6810	 6.2300
 2.6830	 6.2270
 2.6840	 5.9650
 2.6850	 5.8840
 2.6870	 6.0110
 2.6880	 5.9460
 2.6900	 5.8230
 2.6910	 5.6950
 2.6920	 5.5690
 2.6940	 5.5360
 2.6950	 5.6190
 2.6970	 5.5590
 2.6980	 5.5150
 2.6990	 5.4240
 2.7010	 5.3430
 2.7020	 5.1570
 2.7040	 5.1980
 2.7050	 5.3570
 2.7060	 5.3330
 2.7080	 5.3130
 2.7090	 5.2990
 2.7110	 5.3070
 2.7120	 5.1600
 2.7130	 5.0410
 2.7150	 5.0370
 2.7160	 5.1400
 2.7180	 5.1220
 2.7190	 5.0460
 2.7210	 5.1150
 2.7220	 5.0150
 2.7230	 5.0230
 2.7250	 4.9090
 2.7260	 4.7740
 2.7280	 4.8990
 2.7290	 4.8070
 2.7310	 4.5480
 2.7320	 4.5740
 2.7330	 4.6370
 2.7350	 4.7090
 2.7360	 4.6510
 2.7380	 4.3890
 2.7390	 4.3450
 2.7410	 4.4050
 2.7420	 4.3660
 2.7440	 4.3370
 2.7450	 4.0620
 2.7470	 4.0950
 2.7480	 4.3830
 2.7490	 4.4130
 2.7510	 4.4990
 2.7520	 4.4720
 2.7540	 4.4040
 2.7550	 4.4810
 2.7570	 4.3230
 2.7580	 4.1960
 2.7600	 4.1660
 2.7610	 4.0590
 2.7630	 3.9750
 2.7640	 4.0400
 2.7660	 4.1610
 2.7670	 4.1940
 2.7680	 4.1510
 2.7700	 3.9920
 2.7710	 3.8260
 2.7730	 3.7680
 2.7740	 3.9030
 2.7760	 4.1750
 2.7770	 4.0050
 2.7790	 3.8130
 2.7800	 3.9230
 2.7820	 3.8470
 2.7830	 3.7770
 2.7850	 3.8670
 2.7860	 3.8840
 2.7880	 3.9270
 2.7890	 4.0060
 2.7910	 3.8590
 2.7920	 3.7610
 2.7940	 3.6390
 2.7950	 3.6120
 2.7970	 3.7020
 2.7980	 3.7410
 2.8000	 3.5890
 2.8010	 3.5660
 2.8030	 3.7310
 2.8040	 3.7730
 2.8060	 3.6960
 2.8070	 3.6190
 2.8090	 3.6670
 2.8110	 3.7950
 2.8120	 3.8850
 2.8140	 3.7660
 2.8150	 3.6150
 2.8170	 3.6230
 2.8180	 3.6280
 2.8200	 3.5190
 2.8210	 3.4190
 2.8230	 3.4730
 2.8240	 3.5890
 2.8260	 3.6470
 2.8270	 3.5500
 2.8290	 3.4950
 2.8300	 3.5620
 2.8320	 3.5650
 2.8340	 3.5480
 2.8350	 3.5910
 2.8370	 3.4870
 2.8380	 3.5090
 2.8400	 3.5950
 2.8410	 3.5450
 2.8430	 3.5010
 2.8440	 3.2720
 2.8460	 3.1490
 2.8480	 3.3650
 2.8490	 3.4540
 2.8510	 3.4690
 2.8520	 3.4060
 2.8540	 3.5200
 2.8550	 3.5670
 2.8570	 3.3850
 2.8590	 3.4180
 2.8600	 3.5420
 2.8620	 3.4350
 2.8630	 3.4750
 2.8650	 3.4440
 2.8660	 3.4020
 2.8680	 3.4410
 2.8700	 3.4670
 2.8710	 3.5180
 2.8730	 3.5030
 2.8740	 3.4960
 2.8760	 3.4320
 2.8780	 3.2270
 2.8790	 3.1700
 2.8810	 3.3590
 2.8820	 3.4110
 2.8840	 3.3790
 2.8860	 3.4670
 2.8870	 3.2300
 2.8890	 3.1180
 2.8900	 3.0830
 2.8920	 2.9050
 2.8940	 2.9160
 2.8950	 3.1700
 2.8970	 3.4040
 2.8980	 3.3730
 2.9000	 3.2480
 2.9020	 3.3850
 2.9030	 3.4440
 2.9050	 3.1330
 2.9070	 2.8980
 2.9080	 3.0210
 2.9100	 3.2660
 2.9120	 3.4520
 2.9130	 3.3020
 2.9150	 3.2160
 2.9160	 3.2470
 2.9180	 3.1590
 2.9200	 2.9960
 2.9210	 3.0610
 2.9230	 3.0790
 2.9250	 3.0230
 2.9260	 3.1160
 2.9280	 3.2670
 2.9300	 3.1940
 2.9310	 3.1120
 2.9330	 3.0330
 2.9350	 3.0110
 2.9360	 3.1400
 2.9380	 3.1730
 2.9400	 3.1730
 2.9410	 3.1470
 2.9430	 3.1140
 2.9450	 3.0080
 2.9460	 3.1070
 2.9480	 3.0640
 2.9500	 2.9030
 2.9510	 2.9440
 2.9530	 3.2680
 2.9550	 3.6510
 2.9560	 3.6660
 2.9580	 3.5950
 2.9600	 4.0160
 2.9610	 4.0560
 2.9630	 3.5170
 2.9650	 3.1480
 2.9660	 3.0170
 2.9680	 2.5790
 2.9700	 2.0840
 2.9720	 2.0460
 2.9730	 2.3400
 2.9750	 2.6970
 2.9770	 3.6680
 2.9780	 3.6010
 2.9800	 2.5290
 2.9820	 2.4520
 2.9840	 2.5610
 2.9850	 2.9970
 2.9870	 3.1600
 2.9890	 2.5660
 2.9900	 2.8020
 2.9920	 4.0060
 2.9940	 4.6970
 2.9960	 4.0190
 2.9970	 3.6120
 2.9990	 3.0810
 3.0010	 2.8410
 3.0030	 3.3450
 3.0040	 3.6580
 3.0060	 3.5410
 3.0080	 3.1860
 3.0100	 3.0160
 3.0110	 3.4000
 3.0130	 3.6990
 3.0150	 3.9620
 3.0170	 4.1490
 3.0180	 3.4900
 3.0200	 3.2020
 3.0220	 3.3720
 3.0240	 3.3170
 3.0250	 3.3230
 3.0270	 3.4270
 3.0290	 3.3370
 3.0310	 3.3390
 3.0320	 3.5920
 3.0340	 3.3130
 3.0360	 2.2710
 3.0380	 1.7630
 3.0400	 2.5140
 3.0410	 3.4680
 3.0430	 4.1880
 3.0450	 3.7120
 3.0470	 2.6940
 3.0480	 2.7600
 3.0500	 3.6880
 3.0520	 4.1790
 3.0540	 3.7640
 3.0560	 4.2010
 3.0570	 3.9640
 3.0590	 3.8440
 3.0610	 3.6240
 3.0630	 3.0420
 3.0650	 3.3390
 3.0660	 3.6580
 3.0680	 3.1590
 3.0700	 3.0770
 3.0720	 3.2290
 3.0740	 3.3940
 3.0760	 3.3280
 3.0770	 3.4080
 3.0790	 3.6220
 3.0810	 3.4260
 3.0830	 3.2260
 3.0850	 3.3310
 3.0870	 3.4410
 3.0880	 3.5090
 3.0900	 3.5570
 3.0920	 3.5840
 3.0940	 3.5170
 3.0960	 3.4410
 3.0980	 3.4290
 3.0990	 3.5020
 3.1010	 3.6180
 3.1030	 3.7470
 3.1050	 3.8020
 3.1070	 3.6070
 3.1090	 3.4590
 3.1110	 3.4310
 3.1120	 3.5180
 3.1140	 3.6070
 3.1160	 3.5900
 3.1180	 3.7220
 3.1200	 3.8800
 3.1220	 3.8440
 3.1240	 3.7330
 3.1260	 3.5700
 3.1270	 3.2860
 3.1290	 3.4050
 3.1310	 3.7400
 3.1330	 3.7510
 3.1350	 3.9280
 3.1370	 3.7360
 3.1390	 3.4270
 3.1410	 4.0210
 3.1430	 4.3000
 3.1450	 2.8890
 3.1460	 2.9310
 3.1480	 2.6650
 3.1500	 2.2930
 3.1520	 3.5230
 3.1540	 3.3740
 3.1560	 3.0750
 3.1580	 3.6510
 3.1600	 4.2130
 3.1620	 4.4600
 3.1640	 3.7410
 3.1660	 2.9080
 3.1680	 2.8820
 3.1700	 4.0140
 3.1710	 4.5460
 3.1730	 4.6410
 3.1750	 4.6200
 3.1770	 4.3520
 3.1790	 3.7310
 3.1810	 3.5210
 3.1830	 3.8090
 3.1850	 3.5160
 3.1870	 3.7140
 3.1890	 3.6140
 3.1910	 3.7220
 3.1930	 3.7390
 3.1950	 3.7660
 3.1970	 3.9040
 3.1990	 4.0710
 3.2010	 3.8420
 3.2030	 3.8340
 3.2050	 3.8460
 3.2070	 3.8070
 3.2090	 3.8340
 3.2110	 3.8230
 3.2130	 3.6860
 3.2150	 3.9680
 3.2170	 4.1280
 3.2190	 3.9470
 3.2210	 3.7830
 3.2230	 3.8480
 3.2250	 3.9610
 3.2270	 4.0180
 3.2290	 3.9810
 3.2310	 3.9750
 3.2330	 3.7400
 3.2350	 3.9080
 3.2370	 4.0590
 3.2390	 3.8190
 3.2410	 3.6000
 3.2430	 3.7830
 3.2450	 4.1190
 3.2470	 4.1140
 3.2490	 4.0290
 3.2510	 3.9260
 3.2530	 3.9720
 3.2550	 4.0500
 3.2570	 4.0840
 3.2590	 4.2750
 3.2610	 4.2170
 3.2630	 4.1660
 3.2650	 4.1450
 3.2670	 4.2420
 3.2690	 4.2250
 3.2720	 4.1040
 3.2740	 4.0350
 3.2760	 4.0430
 3.2780	 4.2330
 3.2800	 4.2810
 3.2820	 4.1240
 3.2840	 4.0250
 3.2860	 4.0890
 3.2880	 4.1930
 3.2900	 4.0240
 3.2920	 3.8670
 3.2940	 3.9580
 3.2960	 4.1880
 3.2990	 4.2100
 3.3010	 4.1380
 3.3030	 4.1160
 3.3050	 4.1670
 3.3070	 4.3600
 3.3090	 4.4140
 3.3110	 4.2130
 3.3130	 4.0300
 3.3150	 4.1280
 3.3180	 4.2650
 3.3200	 4.2630
 3.3220	 4.0450
 3.3240	 4.0830
 3.3260	 4.1530
 3.3280	 4.0970
 3.3300	 4.0660
 3.3330	 4.1210
 3.3350	 4.1510
 3.3370	 4.0820
 3.3390	 4.1030
 3.3410	 4.0960
 3.3430	 4.0230
 3.3450	 3.9610
 3.3480	 4.1040
 3.3500	 4.0200
 3.3520	 4.0110
 3.3540	 3.9740
 3.3560	 3.8630
 3.3580	 3.8240
 3.3610	 3.8400
 3.3630	 3.9440
 3.3650	 4.0050
 3.3670	 3.8740
 3.3690	 3.8090
 3.3720	 3.7880
 3.3740	 3.7890
 3.3760	 3.6690
 3.3780	 3.6680
 3.3800	 3.7340
 3.3830	 3.6320
 3.3850	 3.6150
 3.3870	 3.6820
 3.3890	 3.6130
 3.3910	 3.6670
 3.3940	 3.6720
 3.3960	 3.5240
 3.3980	 3.4150
 3.4000	 3.5600
 3.4020	 3.5700
 3.4050	 3.5490
 3.4070	 3.4570
 3.4090	 3.4640
 3.4110	 3.5920
 3.4140	 3.8000
 3.4160	 4.0250
 3.4180	 4.1510
 3.4200	 4.3730
 3.4230	 4.8120
 3.4250	 5.2180
 3.4270	 5.4460
 3.4290	 5.6070
 3.4320	 5.4600
 3.4340	 5.1420
 3.4360	 5.0020
 3.4390	 4.7150
 3.4410	 4.5290
 3.4430	 4.3810
 3.4450	 4.2910
 3.4480	 4.2900
 3.4500	 4.3720
 3.4520	 4.4640
 3.4550	 4.4430
 3.4570	 4.5170
 3.4590	 4.5850
 3.4620	 4.5190
 3.4640	 4.4340
 3.4660	 4.2300
 3.4680	 4.2550
 3.4710	 4.3730
 3.4730	 4.2910
 3.4750	 4.1820
 3.4780	 4.2540
 3.4800	 4.2710
 3.4820	 4.3030
 3.4850	 4.2270
 3.4870	 4.0570
 3.4890	 3.9370
 3.4920	 3.9730
 3.4940	 4.0310
 3.4970	 4.0320
 3.4990	 4.0620
 3.5010	 4.1760
 3.5040	 4.3610
 3.5060	 4.6240
 3.5080	 5.1650
 3.5110	 5.6600
 3.5130	 5.7390
 3.5160	 5.5060
 3.5180	 5.1070
 3.5200	 4.9940
 3.5230	 5.0460
 3.5250	 4.9560
 3.5270	 4.9040
 3.5300	 4.9430
 3.5320	 4.9000
 3.5350	 4.9180
 3.5370	 4.8660
 3.5400	 4.9640
 3.5420	 5.0980
 3.5440	 5.1370
 3.5470	 5.0020
 3.5490	 4.8410
 3.5520	 4.8570
 3.5540	 4.9030
 3.5570	 4.9910
 3.5590	 4.9670
 3.5610	 4.9950
 3.5640	 5.1180
 3.5660	 5.1550
 3.5690	 5.0920
 3.5710	 5.0400
 3.5740	 5.1170
 3.5760	 5.0560
 3.5790	 5.0400
 3.5810	 4.9840
 3.5840	 5.0240
 3.5860	 5.1820
 3.5890	 5.1310
 3.5910	 4.8720
 3.5930	 4.9150
 3.5960	 4.9820
 3.5980	 4.9280
 3.6010	 5.0170
 3.6030	 5.0330
 3.6060	 5.0150
 3.6080	 5.1240
 3.6110	 5.0330
 3.6140	 4.9980
 3.6160	 5.0040
 3.6190	 5.0240
 3.6210	 5.0710
 3.6240	 5.0080
 3.6260	 4.9570
 3.6290	 4.9780
 3.6310	 4.9100
 3.6340	 4.9060
 3.6360	 4.9560
 3.6390	 5.0260
 3.6410	 4.9680
 3.6440	 4.9020
 3.6470	 5.0110
 3.6490	 5.0940
 3.6520	 5.1040
 3.6540	 5.0750
 3.6570	 5.0090
 3.6590	 5.0020
 3.6620	 4.9860
 3.6650	 5.0150
 3.6670	 5.0570
 3.6700	 5.0520
 3.6720	 5.0540
 3.6750	 5.0490
 3.6780	 5.0460
 3.6800	 5.0830
 3.6830	 5.0640
 3.6850	 5.0860
 3.6880	 5.1370
 3.6910	 5.2060
 3.6930	 5.1900
 3.6960	 5.1050
 3.6990	 5.0440
 3.7010	 5.0280
 3.7040	 4.9690
 3.7060	 4.9510
 3.7090	 4.9950
 3.7120	 5.0690
 3.7140	 5.0470
 3.7170	 5.0670
 3.7200	 5.2020
 3.7220	 5.2520
 3.7250	 5.2190
 3.7280	 5.3000
 3.7300	 5.2430
 3.7330	 5.0990
 3.7360	 5.0850
 3.7390	 5.0780
 3.7410	 5.1350
 3.7440	 5.2630
 3.7470	 5.2080
 3.7490	 5.1670
 3.7520	 5.0680
 3.7550	 4.9950
 3.7580	 5.1010
 3.7600	 5.2080
 3.7630	 5.2550
 3.7660	 5.0950
 3.7680	 5.0180
 3.7710	 5.0200
 3.7740	 5.0210
 3.7770	 5.0850
 3.7790	 5.1460
 3.7820	 5.1750
 3.7850	 5.1490
 3.7880	 5.0920
 3.7900	 5.0690
 3.7930	 5.1150
 3.7960	 5.2420
 3.7990	 5.2380
 3.8020	 5.2040
 3.8040	 5.1430
 3.8070	 5.1390
 3.8100	 5.2080
 3.8130	 5.2170
 3.8160	 5.2610
 3.8180	 5.1740
 3.8210	 5.1590
 3.8240	 5.2260
 3.8270	 5.1890
 3.8300	 5.1640
 3.8330	 5.1650
 3.8350	 5.2280
 3.8380	 5.3120
 3.8410	 5.2550
 3.8440	 5.1250
 3.8470	 5.0930
 3.8500	 5.2440
 3.8520	 5.2910
 3.8550	 5.2320
 3.8580	 5.2030
 3.8610	 5.2210
 3.8640	 5.1790
 3.8670	 5.1830
 3.8700	 5.2750
 3.8730	 5.2360
 3.8750	 5.1880
 3.8780	 5.2260
 3.8810	 5.2580
 3.8840	 5.2720
 3.8870	 5.2920
 3.8900	 5.1590
 3.8930	 5.0800
 3.8960	 5.1380
 3.8990	 5.2160
 3.9020	 5.2570
 3.9050	 5.2470
 3.9080	 5.2690
 3.9110	 5.3130
 3.9140	 5.3100
 3.9160	 5.3520
 3.9190	 5.3050
 3.9220	 5.3000
 3.9250	 5.3300
 3.9280	 5.3380
 3.9310	 5.3150
 3.9340	 5.3600
 3.9370	 5.2920
 3.9400	 5.1870
 3.9430	 5.2050
 3.9460	 5.2380
 3.9490	 5.2540
 3.9520	 5.3200
 3.9550	 5.3820
 3.9580	 5.3980
 3.9610	 5.4060
 3.9640	 5.3910
 3.9670	 5.3570
 3.9700	 5.3260
 3.9730	 5.2710
 3.9770	 5.3330
 3.9800	 5.4060
 3.9830	 5.3640
 3.9860	 5.3060
 3.9890	 5.3250
 3.9920	 5.4180
 3.9950	 5.4150
 3.9980	 5.3580
 4.0010	 5.3460
 4.0040	 5.3150
 4.0070	 5.3350
 4.0100	 5.3280
 4.0130	 5.3370
 4.0170	 5.3890
 4.0200	 5.3950
 4.0230	 5.3760
 4.0260	 5.3650
 4.0290	 5.3940
 4.0320	 5.4240
 4.0350	 5.4860
 4.0380	 5.4350
 4.0420	 5.3490
 4.0450	 5.4230
 4.0480	 5.4720
 4.0510	 5.4510
 4.0540	 5.4920
 4.0570	 5.4780
 4.0610	 5.5000
 4.0640	 5.5920
 4.0670	 5.5310
 4.0700	 5.4290
 4.0730	 5.3810
 4.0770	 5.4090
 4.0800	 5.4670
 4.0830	 5.5830
 4.0860	 5.4840
 4.0890	 5.4000
 4.0930	 5.4530
 4.0960	 5.4270
 4.0990	 5.3000
 4.1020	 5.3310
 4.1060	 5.4170
 4.1090	 5.3930
 4.1120	 5.3740
 4.1150	 5.4770
 4.1190	 5.5180
 4.1220	 5.5190
 4.1250	 5.5610
 4.1280	 5.5060
 4.1320	 5.4150
 4.1350	 5.4060
 4.1380	 5.4080
 4.1420	 5.3570
 4.1450	 5.3800
 4.1480	 5.3890
 4.1520	 5.3130
 4.1550	 5.3280
 4.1580	 5.4090
 4.1620	 5.4570
 4.1650	 5.4650
 4.1680	 5.4800
 4.1720	 5.4490
 4.1750	 5.4580
 4.1780	 5.4770
 4.1820	 5.4620
 4.1850	 5.4820
 4.1890	 5.4810
 4.1920	 5.5000
 4.1950	 5.5210
 4.1990	 5.4720
 4.2020	 5.3490
 4.2060	 5.2560
 4.2090	 5.3950
 4.2120	 5.4460
 4.2160	 5.4440
 4.2190	 5.4910
 4.2230	 5.3310
 4.2260	 5.2960
 4.2300	 5.3940
 4.2330	 5.4570
 4.2360	 5.2040
 4.2400	 4.7590
 4.2430	 4.9300
 4.2470	 4.9230
 4.2500	 4.8880
 4.2540	 5.0120
 4.2570	 5.2840
 4.2610	 5.1890
 4.2640	 4.9600
 4.2680	 4.9990
 4.2710	 5.0570
 4.2750	 5.1210
 4.2780	 5.1110
 4.2820	 5.2400
 4.2850	 5.3000
 4.2890	 5.1760
 4.2930	 5.2810
 4.2960	 5.3010
 4.3000	 5.1770
 4.3030	 5.1610
 4.3070	 5.1310
 4.3100	 5.1480
 4.3140	 5.2630
 4.3180	 5.3670
 4.3210	 5.3360
 4.3250	 5.2540
 4.3280	 5.3050
 4.3320	 5.3030
 4.3360	 5.4120
 4.3390	 5.4590
 4.3430	 5.3050
 4.3470	 5.2530
 4.3500	 5.3830
 4.3540	 5.4070
 4.3570	 5.3810
 4.3610	 5.3220
 4.3650	 5.3750
 4.3680	 5.3690
 4.3720	 5.2910
 4.3760	 5.3150
 4.3800	 5.3900
 4.3830	 5.4180
 4.3870	 5.3490
 4.3910	 5.2510
 4.3940	 5.2180
 4.3980	 5.2820
 4.4020	 5.3050
 4.4060	 5.2880
 4.4090	 5.2590
 4.4130	 5.1880
 4.4170	 5.2660
 4.4210	 5.3130
 4.4240	 5.3370
 4.4280	 5.3390
 4.4320	 5.2770
 4.4360	 5.1910
 4.4400	 5.2010
 4.4430	 5.2370
 4.4470	 5.3480
 4.4510	 5.3520
 4.4550	 5.2800
 4.4590	 5.3050
 4.4620	 5.2900
 4.4660	 5.2470
 4.4700	 5.2510
 4.4740	 5.2370
 4.4780	 5.3200
 4.4820	 5.2990
 4.4860	 5.2600
 4.4900	 5.2570
 4.4930	 5.2600
 4.4970	 5.2790
 4.5010	 5.3250
 4.5050	 5.2900
 4.5090	 5.2290
 4.5130	 5.1520
 4.5170	 5.2010
 4.5210	 5.2510
 4.5250	 5.2520
 4.5290	 5.1860
 4.5330	 5.1980
 4.5370	 5.2410
 4.5410	 5.2070
 4.5450	 5.0690
 4.5490	 5.0310
 4.5530	 5.1000
 4.5570	 5.2100
 4.5610	 5.1820
 4.5650	 5.1530
 4.5690	 5.1830
 4.5730	 5.2200
 4.5770	 5.1360
 4.5810	 5.0900
 4.5850	 5.1750
 4.5890	 5.1980
 4.5930	 5.0850
 4.5970	 5.0820
 4.6010	 5.0750
 4.6050	 5.1700
 4.6090	 5.1470
 4.6130	 5.0900
 4.6170	 5.1660
 4.6220	 5.2390
 4.6260	 5.1550
 4.6300	 5.2190
 4.6340	 5.2460
 4.6380	 5.1410
 4.6420	 5.0930
 4.6460	 5.1410
 4.6510	 5.0900
 4.6550	 5.0320
 4.6590	 5.0560
 4.6630	 5.1090
 4.6670	 5.1020
 4.6720	 5.0700
 4.6760	 5.0620
 4.6800	 5.1360
 4.6840	 5.1630
 4.6880	 5.2440
 4.6930	 5.2370
 4.6970	 5.1250
 4.7010	 5.0750
 4.7050	 5.0600
 4.7100	 5.0320
 4.7140	 5.0510
 4.7180	 4.9910
 4.7230	 5.0470
 4.7270	 5.1600
 4.7310	 5.2240
 4.7360	 5.1720
 4.7400	 5.1300
 4.7440	 5.0080
 4.7490	 5.0040
 4.7530	 4.9890
 4.7570	 4.9970
 4.7620	 5.0000
 4.7660	 5.0310
 4.7700	 4.9740
 4.7750	 4.8930
 4.7790	 4.8120
 4.7840	 4.8660
 4.7880	 4.8740
 4.7920	 4.8760
 4.7970	 4.9350
 4.8010	 5.1130
 4.8060	 5.2190
 4.8100	 5.1610
 4.8150	 5.0660
 4.8190	 5.0860
 4.8240	 5.2040
 4.8280	 5.1400
 4.8330	 4.9920
 4.8370	 5.0210
 4.8420	 5.0550
 4.8460	 5.1800
 4.8510	 5.1700
 4.8550	 5.0020
 4.8600	 4.9540
 4.8640	 5.0360
 4.8690	 5.1080
 4.8730	 5.1460
 4.8780	 5.0920
 4.8830	 5.0890
 4.8870	 5.1750
 4.8920	 5.2100
 4.8960	 5.1280
 4.9010	 5.1150
 4.9060	 5.0150
 4.9100	 4.9400
 4.9150	 4.9490
 4.9200	 5.0250
 4.9240	 4.9340
 4.9290	 4.9340
 4.9340	 5.0310
 4.9380	 5.0830
 4.9430	 5.0470
 4.9480	 5.0580
 4.9530	 4.9800
 4.9570	 5.0090
 4.9620	 5.0320
 4.9670	 5.0470
 4.9720	 5.0240
 4.9760	 5.0030
 4.9810	 4.9570
 4.9860	 4.9650
 4.9910	 4.9790
 4.9960	 5.0260
 5.0000	 5.0460
 5.0050	 5.0320
 5.0100	 5.0340
 5.0150	 5.1040
 5.0200	 5.1440
 5.0250	 5.1010
 5.0290	 5.0680
 5.0340	 5.1790
 5.0390	 5.2090
 5.0440	 5.1780
 5.0490	 5.0890
 5.0540	 5.0880
 5.0590	 5.0680
 5.0640	 4.9950
 5.0690	 5.0200
 5.0740	 5.0610
 5.0790	 5.0380
 5.0840	 5.0560
 5.0890	 4.9630
 5.0940	 4.9690
 5.0990	 5.0390
 5.1040	 5.0700
 5.1090	 5.0390
 5.1140	 5.0350
 5.1190	 5.0330
 5.1240	 5.1190
 5.1290	 5.1450
 5.1340	 5.1380
 5.1390	 5.0560
 5.1440	 5.0880
 5.1490	 5.0280
 5.1540	 4.9710
 5.1600	 4.9120
 5.1650	 5.0080
 5.1700	 5.0550
 5.1750	 5.0400
 5.1800	 5.0320
 5.1850	 5.0090
 5.1910	 4.9920
 5.1960	 5.0430
 5.2010	 4.9290
 5.2060	 4.9070
 5.2110	 4.8970
 5.2170	 4.9890
 5.2220	 4.9810
 5.2270	 5.0400
 5.2320	 5.0600
 5.2380	 5.0860
 5.2430	 5.0670
 5.2480	 5.0030
 5.2540	 4.9540
 5.2590	 5.0140
 5.2640	 4.9570
 5.2700	 5.0080
 5.2750	 4.9710
 5.2800	 4.8940
 5.2860	 4.8690
 5.2910	 4.9610
 5.2970	 5.0010
 5.3020	 5.0480
 5.3070	 4.9580
 5.3130	 4.8450
 5.3180	 4.7270
 5.3240	 4.8000
 5.3290	 4.8170
 5.3350	 4.9050
 5.3400	 4.9060
 5.3460	 4.9070
 5.3510	 4.8300
 5.3570	 4.8640
 5.3620	 4.8890
 5.3680	 4.9260
 5.3730	 4.8920
 5.3790	 4.8970
 5.3850	 4.8080
 5.3900	 4.7680
 5.3960	 4.7520
 5.4010	 4.8040
 5.4070	 4.8550
 5.4130	 4.8730
 5.4180	 4.8330
 5.4240	 4.8600
 5.4300	 4.8300
 5.4350	 4.8420
 5.4410	 4.7620
 5.4470	 4.7680
 5.4530	 4.8110
 5.4580	 4.8450
 5.4640	 4.7780
 5.4700	 4.6800
 5.4760	 4.6730
 5.4810	 4.7420
 5.4870	 4.6580
 5.4930	 4.5500
 5.4990	 4.4630
 5.5050	 4.4970
 5.5110	 4.4810
 5.5160	 4.4820
 5.5220	 4.4660
 5.5280	 4.5450
 5.5340	 4.4980
 5.5400	 4.4520
 5.5460	 4.3950
 5.5520	 4.4030
 5.5580	 4.3920
 5.5640	 4.4010
 5.5700	 4.3390
 5.5760	 4.2740
 5.5820	 4.1060
 5.5880	 4.0030
 5.5940	 4.0350
 5.6000	 4.1300
 5.6060	 4.0040
 5.6120	 3.9610
 5.6180	 3.9290
 5.6240	 3.8690
 5.6300	 3.7560
 5.6360	 3.7840
 5.6420	 3.7950
 5.6490	 3.7600
 5.6550	 3.6100
 5.6610	 3.4650
 5.6670	 3.3550
 5.6730	 3.2750
 5.6800	 3.1100
 5.6860	 3.0600
 5.6920	 3.0190
 5.6980	 3.0970
 5.7040	 2.9720
 5.7110	 2.8470
 5.7170	 2.7360
 5.7230	 2.7940
 5.7300	 2.7580
 5.7360	 2.6730
 5.7420	 2.6830
 5.7490	 2.8300
 5.7550	 2.7640
 5.7620	 2.8110
 5.7680	 2.9000
 5.7740	 3.0630
 5.7810	 3.0840
 5.7870	 3.2370
 5.7940	 3.2890
 5.8000	 3.3230
 5.8070	 3.3330
 5.8130	 3.4950
 5.8200	 3.5370
 5.8260	 3.5890
 5.8330	 3.5540
 5.8390	 3.6160
 5.8460	 3.7340
 5.8530	 3.8440
 5.8590	 3.8730
 5.8660	 4.0560
 5.8720	 4.1480
 5.8790	 4.1580
 5.8860	 4.0610
 5.8920	 4.1590
 5.8990	 4.1990
 5.9060	 4.1820
 5.9130	 4.1420
 5.9190	 4.1960
 5.9260	 4.1150
 5.9330	 4.2730
 5.9400	 4.3480
 5.9470	 4.3000
 5.9530	 4.1580
 5.9600	 4.1580
 5.9670	 4.1710
 5.9740	 4.1630
 5.9810	 3.9830
 5.9880	 4.0110
 5.9950	 3.9900
 6.0020	 4.0070
 6.0090	 3.9200
 6.0160	 3.8490
 6.0230	 3.6700
 6.0300	 3.6770
 6.0370	 3.7450
 6.0440	 3.9230
 6.0510	 3.9210
 6.0580	 3.8980
 6.0650	 3.8660
 6.0720	 3.9280
 6.0790	 3.8810
 6.0860	 3.9090
 6.0930	 3.8260
 6.1000	 3.8970
 6.1080	 3.9200
 6.1150	 4.0040
 6.1220	 3.9610
 6.1290	 3.8730
 6.1370	 3.7940
 6.1440	 3.9500
 6.1510	 4.0040
 6.1580	 4.0050
 6.1660	 3.8670
 6.1730	 3.8810
 6.1800	 3.8900
 6.1880	 3.9590
 6.1950	 3.8330
 6.2030	 3.8450
 6.2100	 3.8340
 6.2170	 3.9790
 6.2250	 3.9060
 6.2320	 3.8410
 6.2400	 3.8750
 6.2470	 4.1100
 6.2550	 4.0430
 6.2630	 3.9720
 6.2700	 4.0670
 6.2780	 4.2100
 6.2850	 4.0370
 6.2930	 4.0630
 6.3010	 4.1460
 6.3080	 4.2020
 6.3160	 4.0720
 6.3240	 4.2400
 6.3310	 4.3360
 6.3390	 4.3680
 6.3470	 4.3220
 6.3550	 4.3310
 6.3620	 4.2570
 6.3700	 4.2830
 6.3780	 4.3080
 6.3860	 4.3420
 6.3940	 4.3380
 6.4020	 4.4830
 6.4100	 4.5300
 6.4180	 4.5990
 6.4260	 4.4720
 6.4330	 4.4970
 6.4410	 4.3970
 6.4490	 4.3950
 6.4580	 4.3510
 6.4660	 4.3620
 6.4740	 4.3120
 6.4820	 4.3050
 6.4900	 4.3220
 6.4980	 4.2620
 6.5060	 4.1680
 6.5140	 4.4160
 6.5230	 4.4400
 6.5310	 4.3550
 6.5390	 4.1870
 6.5470	 4.2220
 6.5550	 4.0680
 6.5640	 4.1260
 6.5720	 4.1090
 6.5800	 4.0670
 6.5890	 3.9810
 6.5970	 4.0580
 6.6060	 3.9950
 6.6140	 4.0660
 6.6220	 4.1490
 6.6310	 4.3100
 6.6390	 4.3000
 6.6480	 4.2760
 6.6560	 4.1460
 6.6650	 4.2220
 6.6740	 4.2070
 6.6820	 4.2180
 6.6910	 4.1270
 6.6990	 4.1310
 6.7080	 4.1130
 6.7170	 4.1780
 6.7260	 4.0190
 6.7340	 4.0610
 6.7430	 4.0080
 6.7520	 3.9440
 6.7610	 3.8250
 6.7690	 3.8390
 6.7780	 3.8560
 6.7870	 4.0470
 6.7960	 3.9210
 6.8050	 3.7660
 6.8140	 3.7000
 6.8230	 3.7770
 6.8320	 3.7780
 6.8410	 4.0080
 6.8500	 3.9000
 6.8590	 3.8210
 6.8680	 3.8480
 6.8770	 3.8900
 6.8860	 3.8420
 6.8950	 3.8780
 6.9050	 3.7200
 6.9140	 3.7520
 6.9230	 3.7720
 6.9320	 3.8050
 6.9420	 3.6640
 6.9510	 3.7000
 6.9600	 3.6860
 6.9700	 3.8170
 6.9790	 3.8160
 6.9880	 3.8640
 6.9980	 3.7050
 7.0070	 3.7260
 7.0170	 3.6220
 7.0260	 3.7440
 7.0360	 3.7790
 7.0450	 3.9160
 7.0550	 3.9040
 7.0650	 3.9200
 7.0740	 3.7530
 7.0840	 3.7840
 7.0940	 3.7530
 7.1030	 3.7210
 7.1130	 3.5850
 7.1230	 3.7200
 7.1330	 3.7630
 7.1420	 3.8440
 7.1520	 3.7580
 7.1620	 3.7150
 7.1720	 3.5770
 7.1820	 3.6360
 7.1920	 3.5610
 7.2020	 3.5890
 7.2120	 3.5200
 7.2220	 3.6010
 7.2320	 3.6040
 7.2420	 3.6630
 7.2520	 3.5940
 7.2620	 3.6290
 7.2730	 3.4830
 7.2830	 3.5720
 7.2930	 3.5660
 7.3030	 3.5600
 7.3140	 3.4840
 7.3240	 3.5660
 7.3340	 3.5800
 7.3450	 3.7660
 7.3550	 3.7070
 7.3660	 3.7400
 7.3760	 3.6960
 7.3870	 3.8100
 7.3970	 3.7480
 7.4080	 3.7390
 7.4180	 3.6570
 7.4290	 3.8420
 7.4400	 3.8530
 7.4500	 3.8070
 7.4610	 3.7180
 7.4720	 3.7770
 7.4830	 3.7240
 7.4930	 3.8090
 7.5040	 3.8350
 7.5150	 3.8560
 7.5260	 3.6310
 7.5370	 3.6890
 7.5480	 3.6690
 7.5590	 3.6960
 7.5700	 3.5800
 7.5810	 3.6860
 7.5920	 3.7290
 7.6030	 3.8200
 7.6140	 3.8130
 7.6260	 3.8190
 7.6370	 3.8060
 7.6480	 3.9280
 7.6590	 3.7170
 7.6710	 3.7240
 7.6820	 3.7050
 7.6930	 3.8560
 7.7050	 3.7040
 7.7160	 3.6750
 7.7280	 3.6340
 7.7390	 3.7030
 7.7510	 3.6110
 7.7630	 3.6070
 7.7740	 3.4990
 7.7860	 3.5020
 7.7980	 3.4200
 7.8090	 3.4960
 7.8210	 3.5060
 7.8330	 3.6880
 7.8450	 3.5700
 7.8570	 3.5750
 7.8690	 3.5420
 7.8810	 3.6770
 7.8930	 3.7040
 7.9050	 3.8010
 7.9170	 3.7030
 7.9290	 3.8000
 7.9410	 3.7960
 7.9530	 3.8760
 7.9650	 3.8170
 7.9780	 3.8880
 7.9900	 3.6950
 8.0020	 3.6120
 8.0150	 3.4880
 8.0270	 3.7150
 8.0390	 3.7260
 8.0520	 3.7510
 8.0640	 3.6280
 8.0770	 3.7630
 8.0900	 3.7930
 8.1020	 3.9270
 8.1150	 3.8760
 8.1280	 4.1070
 8.1400	 4.0050
 8.1530	 3.9700
 8.1660	 3.7930
 8.1790	 3.9050
 8.1920	 3.8640
 8.2050	 3.9890
 8.2180	 3.9410
 8.2310	 3.9370
 8.2440	 3.9610
 8.2570	 4.1360
 8.2700	 3.9340
 8.2830	 4.0440
 8.2970	 3.9010
 8.3100	 4.0630
 8.3230	 4.0900
 8.3370	 4.0970
 8.3500	 4.0310
 8.3640	 4.2060
 8.3770	 4.1400
 8.3910	 4.2730
 8.4040	 4.0450
 8.4180	 4.0310
 8.4320	 3.9240
 8.4450	 4.1390
 8.4590	 4.0370
 8.4730	 4.0520
 8.4870	 3.9300
 8.5010	 4.0720
 8.5150	 4.0240
 8.5290	 4.2850
 8.5430	 4.4010
 8.5570	 4.5780
 8.5710	 4.5530
 8.5850	 4.5370
 8.5990	 4.3740
 8.6140	 4.5080
 8.6280	 4.4580
 8.6420	 4.6690
 8.6570	 4.4020
 8.6710	 4.5250
 8.6860	 4.4700
 8.7000	 4.6220
 8.7150	 4.6740
 8.7300	 4.8240
 8.7440	 4.4950
 8.7590	 4.5100
 8.7740	 4.5410
 8.7890	 4.8190
 8.8040	 4.7320
 8.8190	 4.6990
 8.8340	 4.5640
 8.8490	 4.6160
 8.8640	 4.4880
 8.8790	 4.7570
 8.8940	 4.7200
 8.9100	 4.7850
 8.9250	 4.5690
 8.9400	 4.4940
 8.9560	 4.2240
 8.9710	 4.3450
 8.9870	 4.1650
 9.0020	 4.3090
 9.0180	 4.2460
 9.0340	 4.2570
 9.0500	 4.1190
 9.0650	 4.3490
 9.0810	 4.0180
 9.0970	 4.0880
 9.1130	 3.9850
 9.1290	 4.0020
 9.1450	 4.0370
 9.1610	 4.3550
 9.1780	 4.1780
 9.1940	 4.1650
 9.2100	 3.8660
 9.2270	 4.0060
 9.2430	 3.8890
 9.2600	 4.0390
 9.2760	 3.9660
 9.2930	 3.9630
 9.3090	 3.6580
 9.3260	 3.7770
 9.3430	 3.8190
 9.3600	 4.0440
 9.3770	 3.9880
 9.3940	 4.0980
 9.4110	 3.9430
 9.4280	 4.3130
 9.4450	 4.1790
 9.4620	 3.9350
 9.4800	 3.5630
 9.4970	 3.9140
 9.5140	 4.0240
 9.5320	 4.0860
 9.5500	 3.9630
 9.5670	 4.2650
 9.5850	 4.2470
 9.6030	 4.3770
 9.6200	 4.2530
 9.6380	 4.4770
 9.6560	 4.2320
 9.6740	 4.4670
 9.6920	 4.4900
 9.7100	 4.4550
 9.7290	 4.4590
 9.7470	 4.8170
 9.7650	 4.6630
 9.7840	 4.5570
 9.8020	 4.3770
 9.8210	 4.6760
 9.8390	 4.6070
 9.8580	 4.6220
 9.8770	 4.5680
 9.8960	 4.6960
 9.9150	 4.6360
 9.9340	 4.8400
 9.9530	 4.7020
 9.9720	 4.8320
 9.9910	 4.7180
10.0100	 4.8230
10.0300	 4.6510
10.0490	 4.7270
10.0690	 4.6200
10.0880	 4.5410
10.1080	 4.4260
10.1280	 4.7460
10.1480	 4.6380
10.1670	 4.7210
10.1870	 4.6940
10.2070	 4.7700
10.2280	 4.5830
10.2480	 4.7800
10.2680	 4.7700
10.2890	 4.9520
10.3090	 4.6960
10.3300	 4.5580
10.3500	 4.4390
10.3710	 4.7500
10.3920	 4.6240
10.4120	 4.8050
10.4330	 4.7310
10.4540	 4.8710
10.4760	 4.8930
10.4970	 5.0990
10.5180	 4.8740
10.5390	 5.0430
10.5610	 5.0890
10.5820	 5.1580
10.6040	 4.8150
10.6260	 4.9030
10.6480	 4.6910
10.6700	 4.7360
10.6920	 4.6170
10.7140	 4.8540
10.7360	 4.8530
10.7580	 5.1750
10.7800	 5.0950
10.8030	 5.0410
10.8250	 4.6600
10.8480	 4.7450
10.8710	 4.6120
10.8940	 4.6750
10.9170	 4.6670
10.9400	 4.8890
10.9630	 4.6760
10.9860	 4.8080
11.0090	 4.5450
11.0330	 4.6610
11.0560	 4.5150
11.0800	 4.8130
11.1040	 4.6590
11.1270	 4.8570
11.1510	 4.8200
11.1750	 4.9610
11.2000	 4.7220
11.2240	 4.7690
11.2480	 4.5270
11.2730	 4.7270
11.2970	 4.7070
11.3220	 4.9650
11.3470	 4.7410
11.3720	 4.8490
11.3970	 4.6050
11.4220	 4.6210
11.4470	 4.5620
11.4720	 4.9190
11.4980	 4.6460
11.5230	 4.7180
11.5490	 4.5440
11.5750	 4.7050
11.6000	 4.5850
11.6260	 4.8630
11.6530	 4.5170
11.6790	 4.3530
11.7050	 4.1120
11.7320	 4.1990
11.7580	 4.0240
11.7850	 4.1980
11.8120	 4.1810
11.8390	 4.4990
11.8660	 4.2290
11.8930	 3.9910
11.9200	 3.7660
11.9480	 4.2640
11.9760	 4.0190
12.0030	 4.1500
12.0310	 3.9870
12.0590	 4.1860
12.0870	 3.9740
12.1150	 4.1030
12.1440	 3.9890
12.1720	 4.2930
12.2010	 4.0030
12.2300	 4.0910
12.2590	 4.0630
12.2880	 4.4280
12.3170	 4.0630
12.3460	 4.0770
12.3760	 3.8650
12.4050	 3.9850
12.4350	 3.8510
12.4650	 4.3040
12.4950	 4.0800
12.5250	 4.1530
12.5550	 3.8830
12.5860	 4.0810
12.6170	 3.7390
12.6470	 3.9400
12.6780	 4.0820
12.7090	 4.1220
12.7410	 3.5830
12.7720	 3.8110
12.8030	 3.7460
12.8350	 3.9000
12.8670	 3.5920
12.8990	 4.0290
12.9310	 4.0110
12.9640	 4.0380
12.9960	 3.8120
13.0290	 4.2750
13.0610	 3.9520
13.0940	 3.9430
13.1280	 3.6940
13.1610	 3.8820
13.1940	 3.7100
13.2280	 4.1500
13.2620	 3.9040
13.2960	 4.2400
13.3300	 3.9840
13.3640	 3.9340
13.3990	 3.3660
13.4340	 3.7890
13.4690	 3.9830
13.5040	 4.2900
13.5390	 3.8130
13.5740	 4.1050
13.6100	 3.9630
13.6460	 4.1520
13.6820	 3.8790
13.7180	 4.0450
13.7540	 3.6910
13.7910	 3.8200
13.8280	 3.5030
13.8650	 4.0600
13.9020	 3.9730
13.9390	 4.3470
13.9770	 3.8090
14.0150	 4.0320
14.0530	 3.7980
14.0910	 4.0900
14.1290	 3.6300
14.1680	 3.7700
14.2070	 3.4150
14.2460	 3.9220
14.2850	 3.6740
14.3240	 3.6160
14.3640	 3.0020
14.4040	 3.8040
14.4440	 3.7170
14.4840	 3.8440
14.5250	 3.2970
14.5660	 3.5940
14.6070	 2.6340
14.6480	 3.1540
14.6900	 2.8180
14.7310	 3.6180
14.7730	 3.7360
14.8150	 4.4560
14.8580	 3.8120
14.9010	 4.0960
14.9440	 3.0870
14.9870	 3.6120
15.0300	 3.2410
15.0740	 4.1510
15.1180	 3.6650
15.1620	 4.5460
15.2060	 4.0970
15.2510	 3.9670
15.2960	 3.1760
15.3410	 3.9600
15.3870	 3.4340
