Name: Baccharis pilularis 1
Type: vegetation
Class: Shrub
Genus: Baccharis
Species: pilularis
Sample No.: VH109
Owner: UCSB
Wavelength Range: TIR
Origin: 34.5084; -119.7687; WGS84
Collection Date: 6/3/2013
Description: Samples were collected as part of the HyspIRI Airborne Campaign. 48 individual plants were sampled in three times in 2013 - spring  summer  and fall. The name of the sample includes a 1  2  or 3 which references a different individual of the species. Samples were taken to JPL and processed within 48 hours of collection. The same leaves were processed in the Nicolet and then measured using the ASD.
Measurement: Hemispherical reflectance
First Column: X
Second Column: Y
X Units: Wavelength (micrometers)
Y Units: Reflectance (percentage)
First X Value: 2.501
Last X Value: 15.387
Number of X Values: 1737
Additional Information: vegetation.shrub.baccharis.pilularis.tir.vh109.ucsb.nicolet.ancillary.txt

 2.5010	 5.3760
 2.5030	 5.3800
 2.5040	 5.5380
 2.5050	 5.5010
 2.5060	 5.5150
 2.5070	 5.4270
 2.5090	 5.3100
 2.5100	 5.2660
 2.5110	 5.4170
 2.5120	 5.4280
 2.5140	 5.4920
 2.5150	 5.5250
 2.5160	 5.4720
 2.5170	 5.3280
 2.5180	 5.2640
 2.5200	 5.2570
 2.5210	 5.3220
 2.5220	 5.3120
 2.5230	 5.4090
 2.5250	 5.4670
 2.5260	 5.5600
 2.5270	 5.5360
 2.5280	 5.5020
 2.5290	 5.3670
 2.5310	 5.3860
 2.5320	 5.4640
 2.5330	 5.4730
 2.5340	 5.3010
 2.5360	 5.2870
 2.5370	 5.3270
 2.5380	 5.3930
 2.5390	 5.4250
 2.5410	 5.3690
 2.5420	 5.3190
 2.5430	 5.4750
 2.5440	 5.4110
 2.5460	 5.3300
 2.5470	 5.3120
 2.5480	 5.3230
 2.5490	 5.2560
 2.5510	 5.3220
 2.5520	 5.3820
 2.5530	 5.4570
 2.5540	 5.4150
 2.5560	 5.4000
 2.5570	 5.4150
 2.5580	 5.4530
 2.5590	 5.3900
 2.5610	 5.3670
 2.5620	 5.3640
 2.5630	 5.4240
 2.5640	 5.3780
 2.5660	 5.4320
 2.5670	 5.4270
 2.5680	 5.3700
 2.5700	 5.2880
 2.5710	 5.4090
 2.5720	 5.4390
 2.5730	 5.3890
 2.5750	 5.4180
 2.5760	 5.4490
 2.5770	 5.3670
 2.5790	 5.4880
 2.5800	 5.4730
 2.5810	 5.4250
 2.5820	 5.3740
 2.5840	 5.4470
 2.5850	 5.3900
 2.5860	 5.3390
 2.5880	 5.2940
 2.5890	 5.4280
 2.5900	 5.4890
 2.5910	 5.4280
 2.5930	 5.3790
 2.5940	 5.3350
 2.5950	 5.3250
 2.5970	 5.4950
 2.5980	 5.4360
 2.5990	 5.3910
 2.6000	 5.4770
 2.6020	 5.5660
 2.6030	 5.4160
 2.6040	 5.3260
 2.6060	 5.2780
 2.6070	 5.3690
 2.6080	 5.3660
 2.6100	 5.3370
 2.6110	 5.3310
 2.6120	 5.4230
 2.6140	 5.4050
 2.6150	 5.4920
 2.6160	 5.4450
 2.6180	 5.3440
 2.6190	 5.2480
 2.6200	 5.3000
 2.6220	 5.2700
 2.6230	 5.2420
 2.6240	 5.2410
 2.6260	 5.3120
 2.6270	 5.2710
 2.6280	 5.2660
 2.6300	 5.1400
 2.6310	 5.1030
 2.6320	 5.1010
 2.6340	 5.1370
 2.6350	 5.1790
 2.6360	 5.2440
 2.6380	 5.1790
 2.6390	 5.2080
 2.6400	 5.1970
 2.6420	 5.1850
 2.6430	 5.0870
 2.6440	 5.1160
 2.6460	 5.0720
 2.6470	 5.0410
 2.6480	 5.0020
 2.6500	 5.0330
 2.6510	 4.9210
 2.6520	 4.8840
 2.6540	 4.9990
 2.6550	 5.0470
 2.6560	 4.9780
 2.6580	 5.1380
 2.6590	 5.0980
 2.6610	 5.0030
 2.6620	 4.8970
 2.6630	 4.9210
 2.6650	 4.9880
 2.6660	 4.9850
 2.6670	 4.8620
 2.6690	 4.9270
 2.6700	 5.0070
 2.6720	 5.0660
 2.6730	 4.8980
 2.6740	 4.8900
 2.6760	 4.8680
 2.6770	 4.9120
 2.6780	 4.8880
 2.6800	 4.9130
 2.6810	 4.9150
 2.6830	 4.9330
 2.6840	 4.8580
 2.6850	 4.8730
 2.6870	 4.8410
 2.6880	 4.7570
 2.6900	 4.6700
 2.6910	 4.6950
 2.6920	 4.6640
 2.6940	 4.7560
 2.6950	 4.7550
 2.6970	 4.7770
 2.6980	 4.7670
 2.6990	 4.8050
 2.7010	 4.7900
 2.7020	 4.8340
 2.7040	 4.8350
 2.7050	 4.8280
 2.7060	 4.7260
 2.7080	 4.7370
 2.7090	 4.7430
 2.7110	 4.7660
 2.7120	 4.7400
 2.7130	 4.7550
 2.7150	 4.6400
 2.7160	 4.5580
 2.7180	 4.5750
 2.7190	 4.6010
 2.7210	 4.6340
 2.7220	 4.7010
 2.7230	 4.6080
 2.7250	 4.5620
 2.7260	 4.3990
 2.7280	 4.3920
 2.7290	 4.4500
 2.7310	 4.5610
 2.7320	 4.4300
 2.7330	 4.3700
 2.7350	 4.3440
 2.7360	 4.4360
 2.7380	 4.4710
 2.7390	 4.4600
 2.7410	 4.2910
 2.7420	 4.1360
 2.7440	 4.1200
 2.7450	 4.2050
 2.7470	 4.1680
 2.7480	 4.2140
 2.7490	 4.0700
 2.7510	 4.1820
 2.7520	 4.2630
 2.7540	 4.2450
 2.7550	 4.1690
 2.7570	 4.1440
 2.7580	 4.1150
 2.7600	 4.1630
 2.7610	 3.9880
 2.7630	 3.9420
 2.7640	 3.9910
 2.7660	 3.9810
 2.7670	 3.8480
 2.7680	 3.8540
 2.7700	 3.8800
 2.7710	 4.0590
 2.7730	 3.9470
 2.7740	 3.8340
 2.7760	 3.7690
 2.7770	 3.7460
 2.7790	 3.6840
 2.7800	 3.8220
 2.7820	 3.8690
 2.7830	 3.9040
 2.7850	 3.8600
 2.7860	 3.8040
 2.7880	 3.6840
 2.7890	 3.6670
 2.7910	 3.6850
 2.7920	 3.7920
 2.7940	 3.6970
 2.7950	 3.5830
 2.7970	 3.6290
 2.7980	 3.7900
 2.8000	 3.7380
 2.8010	 3.5810
 2.8030	 3.5310
 2.8040	 3.6330
 2.8060	 3.5760
 2.8070	 3.6530
 2.8090	 3.7080
 2.8110	 3.7000
 2.8120	 3.6750
 2.8140	 3.7130
 2.8150	 3.6560
 2.8170	 3.6390
 2.8180	 3.5680
 2.8200	 3.6390
 2.8210	 3.5830
 2.8230	 3.6070
 2.8240	 3.5190
 2.8260	 3.5250
 2.8270	 3.4370
 2.8290	 3.4770
 2.8300	 3.4050
 2.8320	 3.3770
 2.8340	 3.3790
 2.8350	 3.4570
 2.8370	 3.3770
 2.8380	 3.3830
 2.8400	 3.3840
 2.8410	 3.4270
 2.8430	 3.4440
 2.8440	 3.4340
 2.8460	 3.3560
 2.8480	 3.4350
 2.8490	 3.4590
 2.8510	 3.4590
 2.8520	 3.4140
 2.8540	 3.4420
 2.8550	 3.4820
 2.8570	 3.4890
 2.8590	 3.4570
 2.8600	 3.4670
 2.8620	 3.3860
 2.8630	 3.4190
 2.8650	 3.4540
 2.8660	 3.4170
 2.8680	 3.2910
 2.8700	 3.3030
 2.8710	 3.2780
 2.8730	 3.2720
 2.8740	 3.3390
 2.8760	 3.4980
 2.8780	 3.4910
 2.8790	 3.5140
 2.8810	 3.4420
 2.8820	 3.4480
 2.8840	 3.3820
 2.8860	 3.4610
 2.8870	 3.5070
 2.8890	 3.5050
 2.8900	 3.3570
 2.8920	 3.3850
 2.8940	 3.3090
 2.8950	 3.3170
 2.8970	 3.3450
 2.8980	 3.3930
 2.9000	 3.3120
 2.9020	 3.2740
 2.9030	 3.2770
 2.9050	 3.4350
 2.9070	 3.4750
 2.9080	 3.3870
 2.9100	 3.2820
 2.9120	 3.3830
 2.9130	 3.3660
 2.9150	 3.3810
 2.9160	 3.3290
 2.9180	 3.3200
 2.9200	 3.3110
 2.9210	 3.3540
 2.9230	 3.2710
 2.9250	 3.3210
 2.9260	 3.3820
 2.9280	 3.4030
 2.9300	 3.3700
 2.9310	 3.3580
 2.9330	 3.3680
 2.9350	 3.4990
 2.9360	 3.4730
 2.9380	 3.5310
 2.9400	 3.5440
 2.9410	 3.5830
 2.9430	 3.4210
 2.9450	 3.4120
 2.9460	 3.4490
 2.9480	 3.4630
 2.9500	 3.3940
 2.9510	 3.4070
 2.9530	 3.3850
 2.9550	 3.4380
 2.9560	 3.4240
 2.9580	 3.4060
 2.9600	 3.3780
 2.9610	 3.4890
 2.9630	 3.5000
 2.9650	 3.4310
 2.9660	 3.4760
 2.9680	 3.5240
 2.9700	 3.3660
 2.9720	 3.4460
 2.9730	 3.5360
 2.9750	 3.5070
 2.9770	 3.3060
 2.9780	 3.3060
 2.9800	 3.4150
 2.9820	 3.5540
 2.9840	 3.5650
 2.9850	 3.5940
 2.9870	 3.4480
 2.9890	 3.4500
 2.9900	 3.4650
 2.9920	 3.4070
 2.9940	 3.3610
 2.9960	 3.4440
 2.9970	 3.4550
 2.9990	 3.5030
 3.0010	 3.3470
 3.0030	 3.4000
 3.0040	 3.4280
 3.0060	 3.4150
 3.0080	 3.4610
 3.0100	 3.4710
 3.0110	 3.4060
 3.0130	 3.5420
 3.0150	 3.6090
 3.0170	 3.6150
 3.0180	 3.5740
 3.0200	 3.5500
 3.0220	 3.4230
 3.0240	 3.4660
 3.0250	 3.5150
 3.0270	 3.5930
 3.0290	 3.5870
 3.0310	 3.5190
 3.0320	 3.4430
 3.0340	 3.5460
 3.0360	 3.5460
 3.0380	 3.5720
 3.0400	 3.5100
 3.0410	 3.4780
 3.0430	 3.4960
 3.0450	 3.5690
 3.0470	 3.4810
 3.0480	 3.5170
 3.0500	 3.5560
 3.0520	 3.5410
 3.0540	 3.4650
 3.0560	 3.5740
 3.0570	 3.6510
 3.0590	 3.7280
 3.0610	 3.6370
 3.0630	 3.6360
 3.0650	 3.6010
 3.0660	 3.6720
 3.0680	 3.6370
 3.0700	 3.6400
 3.0720	 3.5610
 3.0740	 3.4930
 3.0760	 3.5720
 3.0770	 3.6420
 3.0790	 3.5340
 3.0810	 3.5070
 3.0830	 3.5440
 3.0850	 3.5740
 3.0870	 3.5900
 3.0880	 3.7120
 3.0900	 3.6290
 3.0920	 3.6120
 3.0940	 3.5720
 3.0960	 3.6210
 3.0980	 3.6830
 3.0990	 3.7160
 3.1010	 3.6700
 3.1030	 3.7920
 3.1050	 3.7390
 3.1070	 3.6240
 3.1090	 3.5420
 3.1110	 3.6010
 3.1120	 3.6010
 3.1140	 3.7370
 3.1160	 3.7250
 3.1180	 3.7290
 3.1200	 3.6090
 3.1220	 3.6650
 3.1240	 3.6950
 3.1260	 3.6620
 3.1270	 3.6750
 3.1290	 3.7530
 3.1310	 3.6540
 3.1330	 3.6810
 3.1350	 3.7330
 3.1370	 3.7520
 3.1390	 3.7200
 3.1410	 3.7810
 3.1430	 3.7940
 3.1450	 3.7220
 3.1460	 3.5840
 3.1480	 3.5810
 3.1500	 3.6300
 3.1520	 3.7220
 3.1540	 3.7140
 3.1560	 3.7550
 3.1580	 3.7580
 3.1600	 3.7610
 3.1620	 3.7010
 3.1640	 3.8370
 3.1660	 3.9050
 3.1680	 3.8840
 3.1700	 3.8580
 3.1710	 3.8910
 3.1730	 3.8500
 3.1750	 3.8780
 3.1770	 3.8000
 3.1790	 3.7530
 3.1810	 3.7260
 3.1830	 3.8050
 3.1850	 3.7830
 3.1870	 3.8750
 3.1890	 3.9340
 3.1910	 3.9410
 3.1930	 3.8760
 3.1950	 3.7930
 3.1970	 3.7180
 3.1990	 3.7580
 3.2010	 3.8360
 3.2030	 3.9660
 3.2050	 3.8890
 3.2070	 3.8570
 3.2090	 3.8770
 3.2110	 3.9620
 3.2130	 3.8530
 3.2150	 3.8030
 3.2170	 3.8130
 3.2190	 3.9180
 3.2210	 3.9080
 3.2230	 3.8580
 3.2250	 3.8650
 3.2270	 3.9160
 3.2290	 3.8810
 3.2310	 3.9160
 3.2330	 3.9380
 3.2350	 3.9060
 3.2370	 3.8250
 3.2390	 3.8790
 3.2410	 3.8930
 3.2430	 3.9200
 3.2450	 3.9300
 3.2470	 3.9360
 3.2490	 3.8970
 3.2510	 3.9470
 3.2530	 3.9730
 3.2550	 4.0030
 3.2570	 3.8880
 3.2590	 3.8730
 3.2610	 3.9170
 3.2630	 3.9430
 3.2650	 3.8410
 3.2670	 3.8690
 3.2690	 3.8850
 3.2720	 3.9250
 3.2740	 3.8490
 3.2760	 3.8710
 3.2780	 3.9220
 3.2800	 3.9570
 3.2820	 3.8530
 3.2840	 3.8630
 3.2860	 3.9650
 3.2880	 4.0600
 3.2900	 3.9800
 3.2920	 3.9510
 3.2940	 3.9290
 3.2960	 3.9540
 3.2990	 3.8770
 3.3010	 3.8530
 3.3030	 3.8600
 3.3050	 3.9700
 3.3070	 3.9930
 3.3090	 3.9550
 3.3110	 3.8710
 3.3130	 3.9240
 3.3150	 3.9410
 3.3180	 3.9320
 3.3200	 3.8500
 3.3220	 3.8320
 3.3240	 3.8160
 3.3260	 3.8510
 3.3280	 3.8610
 3.3300	 3.8720
 3.3330	 3.8150
 3.3350	 3.7760
 3.3370	 3.7710
 3.3390	 3.7750
 3.3410	 3.6910
 3.3430	 3.6810
 3.3450	 3.6170
 3.3480	 3.6380
 3.3500	 3.6850
 3.3520	 3.6450
 3.3540	 3.5000
 3.3560	 3.4860
 3.3580	 3.5470
 3.3610	 3.5520
 3.3630	 3.4630
 3.3650	 3.4390
 3.3670	 3.3940
 3.3690	 3.4490
 3.3720	 3.4890
 3.3740	 3.5060
 3.3760	 3.5250
 3.3780	 3.5600
 3.3800	 3.6280
 3.3830	 3.6850
 3.3850	 3.5860
 3.3870	 3.5000
 3.3890	 3.4420
 3.3910	 3.4070
 3.3940	 3.3390
 3.3960	 3.3830
 3.3980	 3.4130
 3.4000	 3.4630
 3.4020	 3.4180
 3.4050	 3.5150
 3.4070	 3.6170
 3.4090	 3.7730
 3.4110	 3.9730
 3.4140	 4.2410
 3.4160	 4.5160
 3.4180	 4.9480
 3.4200	 5.4830
 3.4230	 6.1500
 3.4250	 6.8070
 3.4270	 7.5050
 3.4290	 7.9560
 3.4320	 7.6910
 3.4340	 6.8020
 3.4360	 6.0490
 3.4390	 5.5560
 3.4410	 5.2200
 3.4430	 4.9480
 3.4450	 4.8170
 3.4480	 4.7290
 3.4500	 4.7200
 3.4520	 4.6350
 3.4550	 4.6450
 3.4570	 4.6240
 3.4590	 4.6140
 3.4620	 4.5610
 3.4640	 4.5050
 3.4660	 4.4530
 3.4680	 4.3900
 3.4710	 4.2300
 3.4730	 4.1900
 3.4750	 4.2170
 3.4780	 4.1930
 3.4800	 4.0890
 3.4820	 3.9820
 3.4850	 3.9160
 3.4870	 3.9130
 3.4890	 3.9010
 3.4920	 3.9040
 3.4940	 3.9210
 3.4970	 4.0220
 3.4990	 4.1350
 3.5010	 4.3830
 3.5040	 4.7090
 3.5060	 5.3730
 3.5080	 6.4710
 3.5110	 7.4640
 3.5130	 7.3840
 3.5160	 6.4930
 3.5180	 5.7280
 3.5200	 5.3940
 3.5230	 5.1820
 3.5250	 5.0500
 3.5270	 4.9160
 3.5300	 4.8710
 3.5320	 4.7770
 3.5350	 4.6580
 3.5370	 4.6000
 3.5400	 4.6580
 3.5420	 4.6550
 3.5440	 4.6760
 3.5470	 4.6530
 3.5490	 4.6570
 3.5520	 4.6820
 3.5540	 4.6740
 3.5570	 4.5950
 3.5590	 4.5840
 3.5610	 4.5900
 3.5640	 4.6450
 3.5660	 4.5930
 3.5690	 4.5370
 3.5710	 4.4920
 3.5740	 4.5920
 3.5760	 4.6220
 3.5790	 4.6130
 3.5810	 4.5520
 3.5840	 4.5320
 3.5860	 4.4990
 3.5890	 4.5380
 3.5910	 4.4890
 3.5930	 4.5180
 3.5960	 4.5630
 3.5980	 4.5640
 3.6010	 4.5840
 3.6030	 4.5400
 3.6060	 4.4720
 3.6080	 4.5100
 3.6110	 4.5350
 3.6140	 4.6070
 3.6160	 4.5820
 3.6190	 4.5550
 3.6210	 4.5380
 3.6240	 4.5820
 3.6260	 4.5350
 3.6290	 4.4790
 3.6310	 4.4530
 3.6340	 4.5160
 3.6360	 4.5580
 3.6390	 4.5840
 3.6410	 4.5800
 3.6440	 4.6000
 3.6470	 4.5530
 3.6490	 4.5220
 3.6520	 4.5000
 3.6540	 4.5050
 3.6570	 4.4920
 3.6590	 4.6030
 3.6620	 4.6410
 3.6650	 4.5930
 3.6670	 4.5640
 3.6700	 4.5970
 3.6720	 4.5440
 3.6750	 4.5570
 3.6780	 4.5590
 3.6800	 4.5310
 3.6830	 4.5360
 3.6850	 4.5640
 3.6880	 4.5120
 3.6910	 4.5730
 3.6930	 4.5780
 3.6960	 4.5230
 3.6990	 4.4820
 3.7010	 4.5630
 3.7040	 4.6010
 3.7060	 4.5900
 3.7090	 4.4870
 3.7120	 4.4850
 3.7140	 4.5310
 3.7170	 4.5280
 3.7200	 4.5780
 3.7220	 4.6410
 3.7250	 4.5970
 3.7280	 4.5360
 3.7300	 4.4920
 3.7330	 4.5500
 3.7360	 4.5610
 3.7390	 4.5880
 3.7410	 4.5870
 3.7440	 4.5950
 3.7470	 4.5940
 3.7490	 4.5960
 3.7520	 4.4980
 3.7550	 4.4650
 3.7580	 4.4960
 3.7600	 4.6440
 3.7630	 4.6820
 3.7660	 4.6530
 3.7680	 4.6300
 3.7710	 4.6560
 3.7740	 4.6440
 3.7770	 4.6500
 3.7790	 4.5890
 3.7820	 4.6090
 3.7850	 4.6600
 3.7880	 4.7190
 3.7900	 4.6760
 3.7930	 4.6190
 3.7960	 4.6170
 3.7990	 4.6130
 3.8020	 4.6090
 3.8040	 4.6350
 3.8070	 4.5900
 3.8100	 4.5550
 3.8130	 4.5900
 3.8160	 4.6120
 3.8180	 4.6040
 3.8210	 4.6190
 3.8240	 4.6610
 3.8270	 4.7110
 3.8300	 4.6550
 3.8330	 4.5830
 3.8350	 4.6110
 3.8380	 4.6480
 3.8410	 4.6460
 3.8440	 4.6770
 3.8470	 4.6810
 3.8500	 4.7140
 3.8520	 4.7320
 3.8550	 4.7790
 3.8580	 4.7840
 3.8610	 4.7790
 3.8640	 4.7230
 3.8670	 4.6780
 3.8700	 4.6280
 3.8730	 4.5970
 3.8750	 4.6090
 3.8780	 4.6330
 3.8810	 4.6450
 3.8840	 4.6810
 3.8870	 4.7270
 3.8900	 4.7600
 3.8930	 4.7440
 3.8960	 4.7150
 3.8990	 4.6480
 3.9020	 4.6360
 3.9050	 4.6690
 3.9080	 4.7180
 3.9110	 4.6850
 3.9140	 4.6960
 3.9160	 4.7070
 3.9190	 4.6860
 3.9220	 4.6090
 3.9250	 4.6520
 3.9280	 4.6910
 3.9310	 4.7080
 3.9340	 4.7150
 3.9370	 4.6400
 3.9400	 4.5850
 3.9430	 4.6350
 3.9460	 4.6420
 3.9490	 4.6300
 3.9520	 4.6280
 3.9550	 4.6760
 3.9580	 4.6550
 3.9610	 4.6980
 3.9640	 4.7570
 3.9670	 4.7870
 3.9700	 4.7720
 3.9730	 4.7480
 3.9770	 4.7200
 3.9800	 4.6950
 3.9830	 4.6660
 3.9860	 4.7330
 3.9890	 4.7140
 3.9920	 4.6900
 3.9950	 4.7040
 3.9980	 4.7130
 4.0010	 4.7170
 4.0040	 4.7420
 4.0070	 4.6900
 4.0100	 4.6680
 4.0130	 4.6470
 4.0170	 4.6540
 4.0200	 4.6710
 4.0230	 4.6970
 4.0260	 4.6960
 4.0290	 4.7420
 4.0320	 4.8010
 4.0350	 4.7840
 4.0380	 4.7520
 4.0420	 4.7160
 4.0450	 4.6650
 4.0480	 4.6820
 4.0510	 4.7200
 4.0540	 4.7280
 4.0570	 4.7450
 4.0610	 4.7360
 4.0640	 4.7100
 4.0670	 4.7460
 4.0700	 4.6960
 4.0730	 4.6640
 4.0770	 4.6900
 4.0800	 4.6930
 4.0830	 4.6740
 4.0860	 4.7080
 4.0890	 4.7460
 4.0930	 4.7440
 4.0960	 4.6790
 4.0990	 4.7510
 4.1020	 4.7970
 4.1060	 4.7350
 4.1090	 4.7550
 4.1120	 4.7610
 4.1150	 4.7180
 4.1190	 4.7550
 4.1220	 4.7480
 4.1250	 4.7620
 4.1280	 4.8250
 4.1320	 4.8570
 4.1350	 4.8300
 4.1380	 4.8130
 4.1420	 4.8420
 4.1450	 4.8230
 4.1480	 4.7510
 4.1520	 4.7460
 4.1550	 4.7410
 4.1580	 4.7780
 4.1620	 4.7760
 4.1650	 4.7900
 4.1680	 4.8250
 4.1720	 4.8320
 4.1750	 4.8090
 4.1780	 4.8120
 4.1820	 4.8630
 4.1850	 4.8880
 4.1890	 4.8620
 4.1920	 4.8080
 4.1950	 4.7970
 4.1990	 4.9010
 4.2020	 4.9760
 4.2060	 4.9670
 4.2090	 4.9610
 4.2120	 5.0560
 4.2160	 5.0770
 4.2190	 5.1200
 4.2230	 5.2060
 4.2260	 5.2300
 4.2300	 5.2060
 4.2330	 5.1930
 4.2360	 5.1430
 4.2400	 5.0580
 4.2430	 5.0250
 4.2470	 5.0720
 4.2500	 5.0980
 4.2540	 5.0510
 4.2570	 4.9870
 4.2610	 5.0120
 4.2640	 5.0500
 4.2680	 5.0160
 4.2710	 4.9280
 4.2750	 4.9330
 4.2780	 5.0280
 4.2820	 5.0680
 4.2850	 5.0410
 4.2890	 5.0360
 4.2930	 5.0070
 4.2960	 5.1070
 4.3000	 5.1290
 4.3030	 5.0740
 4.3070	 4.9950
 4.3100	 4.9160
 4.3140	 4.9110
 4.3180	 4.9130
 4.3210	 4.8680
 4.3250	 4.8300
 4.3280	 4.7770
 4.3320	 4.7840
 4.3360	 4.8310
 4.3390	 4.8480
 4.3430	 4.8060
 4.3470	 4.7520
 4.3500	 4.7760
 4.3540	 4.7990
 4.3570	 4.8230
 4.3610	 4.8350
 4.3650	 4.8290
 4.3680	 4.8500
 4.3720	 4.8520
 4.3760	 4.7880
 4.3800	 4.7190
 4.3830	 4.7630
 4.3870	 4.7720
 4.3910	 4.8140
 4.3940	 4.8100
 4.3980	 4.7260
 4.4020	 4.7860
 4.4060	 4.8430
 4.4090	 4.9120
 4.4130	 4.8870
 4.4170	 4.7420
 4.4210	 4.6470
 4.4240	 4.6800
 4.4280	 4.7060
 4.4320	 4.7200
 4.4360	 4.7520
 4.4400	 4.7360
 4.4430	 4.6770
 4.4470	 4.6770
 4.4510	 4.7330
 4.4550	 4.7760
 4.4590	 4.7770
 4.4620	 4.7150
 4.4660	 4.6490
 4.4700	 4.6370
 4.4740	 4.6610
 4.4780	 4.7530
 4.4820	 4.7820
 4.4860	 4.7430
 4.4900	 4.7020
 4.4930	 4.7060
 4.4970	 4.7050
 4.5010	 4.7360
 4.5050	 4.7540
 4.5090	 4.7400
 4.5130	 4.7310
 4.5170	 4.7160
 4.5210	 4.6920
 4.5250	 4.6620
 4.5290	 4.6130
 4.5330	 4.7240
 4.5370	 4.7800
 4.5410	 4.7550
 4.5450	 4.7770
 4.5490	 4.7740
 4.5530	 4.7200
 4.5570	 4.6900
 4.5610	 4.6940
 4.5650	 4.7310
 4.5690	 4.7130
 4.5730	 4.6770
 4.5770	 4.6410
 4.5810	 4.6360
 4.5850	 4.6710
 4.5890	 4.6860
 4.5930	 4.6570
 4.5970	 4.6740
 4.6010	 4.6280
 4.6050	 4.5820
 4.6090	 4.6350
 4.6130	 4.6720
 4.6170	 4.6210
 4.6220	 4.6190
 4.6260	 4.6470
 4.6300	 4.6160
 4.6340	 4.5540
 4.6380	 4.5530
 4.6420	 4.5860
 4.6460	 4.6140
 4.6510	 4.6110
 4.6550	 4.5910
 4.6590	 4.5480
 4.6630	 4.5480
 4.6670	 4.5550
 4.6720	 4.5680
 4.6760	 4.5660
 4.6800	 4.5780
 4.6840	 4.6010
 4.6880	 4.6210
 4.6930	 4.5890
 4.6970	 4.5700
 4.7010	 4.6010
 4.7050	 4.6030
 4.7100	 4.5710
 4.7140	 4.6310
 4.7180	 4.6900
 4.7230	 4.6740
 4.7270	 4.6220
 4.7310	 4.5630
 4.7360	 4.5600
 4.7400	 4.5820
 4.7440	 4.5860
 4.7490	 4.6630
 4.7530	 4.6980
 4.7570	 4.6680
 4.7620	 4.6140
 4.7660	 4.6090
 4.7700	 4.6270
 4.7750	 4.6440
 4.7790	 4.6550
 4.7840	 4.6720
 4.7880	 4.6760
 4.7920	 4.6540
 4.7970	 4.6650
 4.8010	 4.6320
 4.8060	 4.5660
 4.8100	 4.5910
 4.8150	 4.5780
 4.8190	 4.5740
 4.8240	 4.5920
 4.8280	 4.5930
 4.8330	 4.6140
 4.8370	 4.7300
 4.8420	 4.7060
 4.8460	 4.6050
 4.8510	 4.5360
 4.8550	 4.5860
 4.8600	 4.5990
 4.8640	 4.5890
 4.8690	 4.6220
 4.8730	 4.6460
 4.8780	 4.6190
 4.8830	 4.6150
 4.8870	 4.6320
 4.8920	 4.6700
 4.8960	 4.6620
 4.9010	 4.6660
 4.9060	 4.6120
 4.9100	 4.5780
 4.9150	 4.5800
 4.9200	 4.5970
 4.9240	 4.5680
 4.9290	 4.6300
 4.9340	 4.6410
 4.9380	 4.6410
 4.9430	 4.6120
 4.9480	 4.5830
 4.9530	 4.5190
 4.9570	 4.5130
 4.9620	 4.5760
 4.9670	 4.6400
 4.9720	 4.6150
 4.9760	 4.6270
 4.9810	 4.6120
 4.9860	 4.6380
 4.9910	 4.6500
 4.9960	 4.6810
 5.0000	 4.6520
 5.0050	 4.6660
 5.0100	 4.6520
 5.0150	 4.6640
 5.0200	 4.6480
 5.0250	 4.6550
 5.0290	 4.6810
 5.0340	 4.6990
 5.0390	 4.6570
 5.0440	 4.6590
 5.0490	 4.6310
 5.0540	 4.6560
 5.0590	 4.6490
 5.0640	 4.6220
 5.0690	 4.6450
 5.0740	 4.7100
 5.0790	 4.7020
 5.0840	 4.6830
 5.0890	 4.6410
 5.0940	 4.6260
 5.0990	 4.6760
 5.1040	 4.6800
 5.1090	 4.6240
 5.1140	 4.6160
 5.1190	 4.5710
 5.1240	 4.6360
 5.1290	 4.6850
 5.1340	 4.6980
 5.1390	 4.6520
 5.1440	 4.6540
 5.1490	 4.6630
 5.1540	 4.6580
 5.1600	 4.6330
 5.1650	 4.6620
 5.1700	 4.6630
 5.1750	 4.6790
 5.1800	 4.6190
 5.1850	 4.6370
 5.1910	 4.6450
 5.1960	 4.6940
 5.2010	 4.6680
 5.2060	 4.6940
 5.2110	 4.6740
 5.2170	 4.6760
 5.2220	 4.6710
 5.2270	 4.6680
 5.2320	 4.6820
 5.2380	 4.6980
 5.2430	 4.6410
 5.2480	 4.6080
 5.2540	 4.5710
 5.2590	 4.5470
 5.2640	 4.6020
 5.2700	 4.6700
 5.2750	 4.6390
 5.2800	 4.6190
 5.2860	 4.5780
 5.2910	 4.5880
 5.2970	 4.5780
 5.3020	 4.6290
 5.3070	 4.5770
 5.3130	 4.5260
 5.3180	 4.5210
 5.3240	 4.5930
 5.3290	 4.6000
 5.3350	 4.6140
 5.3400	 4.5740
 5.3460	 4.5560
 5.3510	 4.4960
 5.3570	 4.4970
 5.3620	 4.5330
 5.3680	 4.5960
 5.3730	 4.5910
 5.3790	 4.5880
 5.3850	 4.5800
 5.3900	 4.6260
 5.3960	 4.5710
 5.4010	 4.5450
 5.4070	 4.5580
 5.4130	 4.5780
 5.4180	 4.5500
 5.4240	 4.5300
 5.4300	 4.4930
 5.4350	 4.5160
 5.4410	 4.4850
 5.4470	 4.5100
 5.4530	 4.4820
 5.4580	 4.4910
 5.4640	 4.5310
 5.4700	 4.5810
 5.4760	 4.5410
 5.4810	 4.4660
 5.4870	 4.4300
 5.4930	 4.4480
 5.4990	 4.3760
 5.5050	 4.3610
 5.5110	 4.3440
 5.5160	 4.3430
 5.5220	 4.3480
 5.5280	 4.4010
 5.5340	 4.3730
 5.5400	 4.3530
 5.5460	 4.2830
 5.5520	 4.3100
 5.5580	 4.3400
 5.5640	 4.3300
 5.5700	 4.2460
 5.5760	 4.1770
 5.5820	 4.1490
 5.5880	 4.2220
 5.5940	 4.1630
 5.6000	 4.1270
 5.6060	 4.0550
 5.6120	 4.0590
 5.6180	 4.0120
 5.6240	 3.9570
 5.6300	 3.9070
 5.6360	 3.9180
 5.6420	 3.8510
 5.6490	 3.7310
 5.6550	 3.5870
 5.6610	 3.5840
 5.6670	 3.5240
 5.6730	 3.4740
 5.6800	 3.3640
 5.6860	 3.3170
 5.6920	 3.1880
 5.6980	 3.1520
 5.7040	 3.0890
 5.7110	 3.0970
 5.7170	 3.0440
 5.7230	 3.0300
 5.7300	 2.9770
 5.7360	 2.9890
 5.7420	 2.9370
 5.7490	 2.9460
 5.7550	 2.9540
 5.7620	 3.0610
 5.7680	 3.1120
 5.7740	 3.2090
 5.7810	 3.2340
 5.7870	 3.3220
 5.7940	 3.3340
 5.8000	 3.3680
 5.8070	 3.3840
 5.8130	 3.4910
 5.8200	 3.5820
 5.8260	 3.6820
 5.8330	 3.6850
 5.8390	 3.8290
 5.8460	 3.8970
 5.8530	 3.9330
 5.8590	 3.9910
 5.8660	 4.0840
 5.8720	 4.0710
 5.8790	 4.1020
 5.8860	 4.0420
 5.8920	 4.0860
 5.8990	 4.0900
 5.9060	 4.1590
 5.9130	 4.2010
 5.9190	 4.3120
 5.9260	 4.3970
 5.9330	 4.5540
 5.9400	 4.6210
 5.9470	 4.7260
 5.9530	 4.6960
 5.9600	 4.7060
 5.9670	 4.6860
 5.9740	 4.6760
 5.9810	 4.6210
 5.9880	 4.6520
 5.9950	 4.6560
 6.0020	 4.6250
 6.0090	 4.4840
 6.0160	 4.5290
 6.0230	 4.4450
 6.0300	 4.4270
 6.0370	 4.3620
 6.0440	 4.3640
 6.0510	 4.3320
 6.0580	 4.4300
 6.0650	 4.4210
 6.0720	 4.4710
 6.0790	 4.4390
 6.0860	 4.4330
 6.0930	 4.4130
 6.1000	 4.4450
 6.1080	 4.4170
 6.1150	 4.3990
 6.1220	 4.3380
 6.1290	 4.4650
 6.1370	 4.4450
 6.1440	 4.4820
 6.1510	 4.5330
 6.1580	 4.5860
 6.1660	 4.5580
 6.1730	 4.5570
 6.1800	 4.5710
 6.1880	 4.7430
 6.1950	 4.8110
 6.2030	 4.8680
 6.2100	 4.8000
 6.2170	 4.7630
 6.2250	 4.6760
 6.2320	 4.6800
 6.2400	 4.6100
 6.2470	 4.6100
 6.2550	 4.5100
 6.2630	 4.5480
 6.2700	 4.4670
 6.2780	 4.4280
 6.2850	 4.4470
 6.2930	 4.5550
 6.3010	 4.4500
 6.3080	 4.4870
 6.3160	 4.5400
 6.3240	 4.6060
 6.3310	 4.5010
 6.3390	 4.4990
 6.3470	 4.4470
 6.3550	 4.5230
 6.3620	 4.4970
 6.3700	 4.5270
 6.3780	 4.5040
 6.3860	 4.5230
 6.3940	 4.4740
 6.4020	 4.5350
 6.4100	 4.5360
 6.4180	 4.5680
 6.4260	 4.4280
 6.4330	 4.3950
 6.4410	 4.3670
 6.4490	 4.4150
 6.4580	 4.3310
 6.4660	 4.3030
 6.4740	 4.2800
 6.4820	 4.3160
 6.4900	 4.2750
 6.4980	 4.3130
 6.5060	 4.2530
 6.5140	 4.2860
 6.5230	 4.2660
 6.5310	 4.3260
 6.5390	 4.2940
 6.5470	 4.2810
 6.5550	 4.1670
 6.5640	 4.1410
 6.5720	 4.0070
 6.5800	 4.0610
 6.5890	 4.0770
 6.5970	 4.1150
 6.6060	 4.0730
 6.6140	 4.1750
 6.6220	 4.1780
 6.6310	 4.1720
 6.6390	 4.1120
 6.6480	 4.1740
 6.6560	 4.0910
 6.6650	 4.1030
 6.6740	 4.0690
 6.6820	 4.0730
 6.6910	 4.0150
 6.6990	 4.0330
 6.7080	 3.9750
 6.7170	 3.9690
 6.7260	 3.8190
 6.7340	 3.7870
 6.7430	 3.7660
 6.7520	 3.8170
 6.7610	 3.7340
 6.7690	 3.7660
 6.7780	 3.7500
 6.7870	 3.9270
 6.7960	 3.7440
 6.8050	 3.5900
 6.8140	 3.5980
 6.8230	 3.7210
 6.8320	 3.7900
 6.8410	 3.8900
 6.8500	 3.7270
 6.8590	 3.6750
 6.8680	 3.6310
 6.8770	 3.7600
 6.8860	 3.7180
 6.8950	 3.6430
 6.9050	 3.6010
 6.9140	 3.7210
 6.9230	 3.6570
 6.9320	 3.6210
 6.9420	 3.6360
 6.9510	 3.7200
 6.9600	 3.5880
 6.9700	 3.6290
 6.9790	 3.5960
 6.9880	 3.7180
 6.9980	 3.6200
 7.0070	 3.6160
 7.0170	 3.6100
 7.0260	 3.5950
 7.0360	 3.5700
 7.0450	 3.6880
 7.0550	 3.6100
 7.0650	 3.6730
 7.0740	 3.6880
 7.0840	 3.6910
 7.0940	 3.5350
 7.1030	 3.6190
 7.1130	 3.6060
 7.1230	 3.6160
 7.1330	 3.4890
 7.1420	 3.5160
 7.1520	 3.4440
 7.1620	 3.5140
 7.1720	 3.4530
 7.1820	 3.4770
 7.1920	 3.3850
 7.2020	 3.4420
 7.2120	 3.4190
 7.2220	 3.5620
 7.2320	 3.6420
 7.2420	 3.6090
 7.2520	 3.4400
 7.2620	 3.5010
 7.2730	 3.4870
 7.2830	 3.5400
 7.2930	 3.4640
 7.3030	 3.4970
 7.3140	 3.4620
 7.3240	 3.5580
 7.3340	 3.4330
 7.3450	 3.4900
 7.3550	 3.5430
 7.3660	 3.6100
 7.3760	 3.5430
 7.3870	 3.5740
 7.3970	 3.5770
 7.4080	 3.7130
 7.4180	 3.5700
 7.4290	 3.5100
 7.4400	 3.4280
 7.4500	 3.4850
 7.4610	 3.4330
 7.4720	 3.5210
 7.4830	 3.4870
 7.4930	 3.5080
 7.5040	 3.4670
 7.5150	 3.4670
 7.5260	 3.3710
 7.5370	 3.4520
 7.5480	 3.4260
 7.5590	 3.5060
 7.5700	 3.4810
 7.5810	 3.5430
 7.5920	 3.5050
 7.6030	 3.6230
 7.6140	 3.5900
 7.6260	 3.6300
 7.6370	 3.5020
 7.6480	 3.5260
 7.6590	 3.5050
 7.6710	 3.5290
 7.6820	 3.4440
 7.6930	 3.4570
 7.7050	 3.3850
 7.7160	 3.4990
 7.7280	 3.3860
 7.7390	 3.3740
 7.7510	 3.3400
 7.7630	 3.4300
 7.7740	 3.3110
 7.7860	 3.2980
 7.7980	 3.2540
 7.8090	 3.4590
 7.8210	 3.4580
 7.8330	 3.4300
 7.8450	 3.3590
 7.8570	 3.4170
 7.8690	 3.3540
 7.8810	 3.4150
 7.8930	 3.3220
 7.9050	 3.3480
 7.9170	 3.3250
 7.9290	 3.4070
 7.9410	 3.2270
 7.9530	 3.3500
 7.9650	 3.3450
 7.9780	 3.3830
 7.9900	 3.4160
 8.0020	 3.5260
 8.0150	 3.4330
 8.0270	 3.5480
 8.0390	 3.3620
 8.0520	 3.4830
 8.0640	 3.5470
 8.0770	 3.6060
 8.0900	 3.5470
 8.1020	 3.6410
 8.1150	 3.5330
 8.1280	 3.5810
 8.1400	 3.5780
 8.1530	 3.8040
 8.1660	 3.7500
 8.1790	 3.8410
 8.1920	 3.7220
 8.2050	 3.7270
 8.2180	 3.6080
 8.2310	 3.6190
 8.2440	 3.6220
 8.2570	 3.7830
 8.2700	 3.6240
 8.2830	 3.7290
 8.2970	 3.7030
 8.3100	 3.8920
 8.3230	 3.7980
 8.3370	 3.7960
 8.3500	 3.7200
 8.3640	 3.8680
 8.3770	 3.7230
 8.3910	 3.8190
 8.4040	 3.7810
 8.4180	 3.9260
 8.4320	 3.6690
 8.4450	 3.7390
 8.4590	 3.7650
 8.4730	 3.8810
 8.4870	 3.6890
 8.5010	 3.7660
 8.5150	 3.6550
 8.5290	 3.8810
 8.5430	 3.8930
 8.5570	 4.1190
 8.5710	 4.0790
 8.5850	 4.1940
 8.5990	 4.0690
 8.6140	 4.1450
 8.6280	 4.0720
 8.6420	 4.3040
 8.6570	 4.2670
 8.6710	 4.3410
 8.6860	 4.2400
 8.7000	 4.3240
 8.7150	 4.2040
 8.7300	 4.3100
 8.7440	 4.1530
 8.7590	 4.2570
 8.7740	 4.2260
 8.7890	 4.3490
 8.8040	 4.1690
 8.8190	 4.2270
 8.8340	 4.0390
 8.8490	 4.1120
 8.8640	 4.0320
 8.8790	 4.0920
 8.8940	 3.9320
 8.9100	 4.1260
 8.9250	 4.0720
 8.9400	 4.1670
 8.9560	 4.1010
 8.9710	 4.1740
 8.9870	 3.9830
 9.0020	 4.1440
 9.0180	 4.0420
 9.0340	 4.1700
 9.0500	 4.0920
 9.0650	 4.2390
 9.0810	 4.1810
 9.0970	 4.3750
 9.1130	 4.2260
 9.1290	 4.2450
 9.1450	 4.1780
 9.1610	 4.4010
 9.1780	 4.1500
 9.1940	 4.2270
 9.2100	 4.2180
 9.2270	 4.4130
 9.2430	 4.3520
 9.2600	 4.4810
 9.2760	 4.3160
 9.2930	 4.3890
 9.3090	 4.3210
 9.3260	 4.5230
 9.3430	 4.3320
 9.3600	 4.4610
 9.3770	 4.3950
 9.3940	 4.5540
 9.4110	 4.4040
 9.4280	 4.6380
 9.4450	 4.6080
 9.4620	 4.7760
 9.4800	 4.5710
 9.4970	 4.6980
 9.5140	 4.5720
 9.5320	 4.6360
 9.5500	 4.5450
 9.5670	 4.7060
 9.5850	 4.5170
 9.6030	 4.5960
 9.6200	 4.5290
 9.6380	 4.8610
 9.6560	 4.8460
 9.6740	 4.9000
 9.6920	 4.7780
 9.7100	 4.8860
 9.7290	 4.6250
 9.7470	 4.6650
 9.7650	 4.5980
 9.7840	 4.8790
 9.8020	 4.7970
 9.8210	 4.7450
 9.8390	 4.4660
 9.8580	 4.6190
 9.8770	 4.4790
 9.8960	 4.5970
 9.9150	 4.3600
 9.9340	 4.4660
 9.9530	 4.3990
 9.9720	 4.5180
 9.9910	 4.4040
10.0100	 4.6340
10.0300	 4.5570
10.0490	 4.6370
10.0690	 4.4700
10.0880	 4.6030
10.1080	 4.4350
10.1280	 4.5200
10.1480	 4.4160
10.1670	 4.5250
10.1870	 4.4960
10.2070	 4.7470
10.2280	 4.5150
10.2480	 4.4670
10.2680	 4.2200
10.2890	 4.4480
10.3090	 4.5220
10.3300	 4.6780
10.3500	 4.5740
10.3710	 4.7350
10.3920	 4.6060
10.4120	 4.7960
10.4330	 4.7010
10.4540	 4.8340
10.4760	 4.7980
10.4970	 4.9870
10.5180	 4.7960
10.5390	 4.8490
10.5610	 4.7960
10.5820	 5.0100
10.6040	 4.8520
10.6260	 4.9800
10.6480	 4.8870
10.6700	 5.0350
10.6920	 4.8890
10.7140	 5.0030
10.7360	 4.8380
10.7580	 4.9950
10.7800	 4.8570
10.8030	 4.9320
10.8250	 4.6530
10.8480	 4.8890
10.8710	 4.8440
10.8940	 4.9480
10.9170	 4.7180
10.9400	 4.9340
10.9630	 4.8460
10.9860	 4.8820
11.0090	 4.6230
11.0330	 4.7370
11.0560	 4.5340
11.0800	 4.5780
11.1040	 4.4300
11.1270	 4.6330
11.1510	 4.4090
11.1750	 4.5350
11.2000	 4.4690
11.2240	 4.6350
11.2480	 4.5290
11.2730	 4.7220
11.2970	 4.5720
11.3220	 4.7720
11.3470	 4.6850
11.3720	 4.8360
11.3970	 4.6710
11.4220	 4.8770
11.4470	 4.7000
11.4720	 4.8860
11.4980	 4.6560
11.5230	 4.8880
11.5490	 4.7500
11.5750	 4.7820
11.6000	 4.5220
11.6260	 4.6740
11.6530	 4.6640
11.6790	 4.8760
11.7050	 4.6750
11.7320	 4.8630
11.7580	 4.7610
11.7850	 4.8310
11.8120	 4.5530
11.8390	 4.6810
11.8660	 4.4730
11.8930	 4.6330
11.9200	 4.4950
11.9480	 4.6220
11.9760	 4.4350
12.0030	 4.7150
12.0310	 4.4800
12.0590	 4.5550
12.0870	 4.4590
12.1150	 4.7790
12.1440	 4.5460
12.1720	 4.6820
12.2010	 4.4520
12.2300	 4.6880
12.2590	 4.5010
12.2880	 4.5980
12.3170	 4.3380
12.3460	 4.5500
12.3760	 4.4870
12.4050	 4.7490
12.4350	 4.5310
12.4650	 4.7230
12.4950	 4.4980
12.5250	 4.7230
12.5550	 4.6100
12.5860	 4.8300
12.6170	 4.4900
12.6470	 4.6610
12.6780	 4.3930
12.7090	 4.5100
12.7410	 4.3390
12.7720	 4.5780
12.8030	 4.3220
12.8350	 4.4960
12.8670	 4.2580
12.8990	 4.5970
12.9310	 4.3690
12.9640	 4.5370
12.9960	 4.3160
13.0290	 4.5780
13.0610	 4.2600
13.0940	 4.4140
13.1280	 4.2440
13.1610	 4.5230
13.1940	 4.1450
13.2280	 4.0060
13.2620	 3.8740
13.2960	 4.4990
13.3300	 4.2090
13.3640	 4.3670
13.3990	 4.1140
13.4340	 4.4300
13.4690	 4.4230
13.5040	 4.7250
13.5390	 4.2770
13.5740	 4.4030
13.6100	 4.0190
13.6460	 4.3600
13.6820	 4.1010
13.7180	 4.3110
13.7540	 3.8670
13.7910	 4.1880
13.8280	 4.1550
13.8650	 4.5730
13.9020	 4.4250
13.9390	 4.7110
13.9770	 4.2180
14.0150	 4.3710
14.0530	 4.0130
14.0910	 4.4080
14.1290	 4.2750
14.1680	 4.7360
14.2070	 4.4080
14.2460	 4.5920
14.2850	 4.1650
14.3240	 4.5440
14.3640	 4.3460
14.4040	 4.6970
14.4440	 4.1710
14.4840	 4.4150
14.5250	 3.9680
14.5660	 4.1630
14.6070	 4.0010
14.6480	 4.7860
14.6900	 4.2950
14.7310	 4.5670
14.7730	 4.0830
14.8150	 4.6060
14.8580	 4.2790
14.9010	 4.7180
14.9440	 3.8250
14.9870	 4.4140
15.0300	 3.9870
15.0740	 4.6640
15.1180	 4.1340
15.1620	 4.6730
15.2060	 4.2840
15.2510	 4.9840
15.2960	 4.4770
15.3410	 4.9650
15.3870	 3.9960
