Name: Ficus thonningii
Type: vegetation
Class: Tree
Genus: Ficus
Species: thonningii
Sample No.: JPL101
Owner: JPL
Wavelength Range: TIR
Origin: 34.12633; - 118.11185; WGS84
Collection Date: 2/2/2016
Description: Samples were collected at the Huntington Garden in San Marino California as part of a JPL Subcontract studying HyTES imagery. Samples were taken to JPL and processed within 48 hours of collection. The same leaves were processed in the Nicolet and then measured using the ASD.
Measurement: Hemispherical reflectance
First Column: X
Second Column: Y
X Units: Wavelength (micrometer)
Y Units: Reflectance (percentage)
First X Value: 2.501
Last X Value: 15.387
Number of X Values: 1737
Additional Information: 

 2.5010	 5.6280
 2.5030	 5.5900
 2.5040	 5.5630
 2.5050	 5.4630
 2.5060	 5.4630
 2.5070	 5.4900
 2.5090	 5.4400
 2.5100	 5.3740
 2.5110	 5.4240
 2.5120	 5.3650
 2.5140	 5.3190
 2.5150	 5.3070
 2.5160	 5.3280
 2.5170	 5.3530
 2.5180	 5.3810
 2.5200	 5.3630
 2.5210	 5.3580
 2.5220	 5.3140
 2.5230	 5.3120
 2.5250	 5.2730
 2.5260	 5.2750
 2.5270	 5.2800
 2.5280	 5.3600
 2.5300	 5.3330
 2.5310	 5.3010
 2.5320	 5.2620
 2.5330	 5.2870
 2.5340	 5.2750
 2.5360	 5.2550
 2.5370	 5.2080
 2.5380	 5.2330
 2.5390	 5.2160
 2.5410	 5.2680
 2.5420	 5.2560
 2.5430	 5.2680
 2.5440	 5.2910
 2.5460	 5.3180
 2.5470	 5.2890
 2.5480	 5.2350
 2.5490	 5.1840
 2.5510	 5.2190
 2.5520	 5.2000
 2.5530	 5.2160
 2.5540	 5.2440
 2.5560	 5.2760
 2.5570	 5.2370
 2.5580	 5.2110
 2.5590	 5.2170
 2.5610	 5.2690
 2.5620	 5.2550
 2.5630	 5.2440
 2.5650	 5.1820
 2.5660	 5.1780
 2.5670	 5.1950
 2.5680	 5.2370
 2.5700	 5.1560
 2.5710	 5.1560
 2.5720	 5.1520
 2.5730	 5.1460
 2.5750	 5.1440
 2.5760	 5.1630
 2.5770	 5.1020
 2.5790	 5.1760
 2.5800	 5.1780
 2.5810	 5.1750
 2.5820	 5.0970
 2.5840	 5.0460
 2.5850	 5.0470
 2.5860	 5.0990
 2.5880	 5.1310
 2.5890	 5.1480
 2.5900	 5.0930
 2.5910	 5.0500
 2.5930	 4.9420
 2.5940	 4.9030
 2.5950	 4.8110
 2.5970	 4.8180
 2.5980	 4.8610
 2.5990	 4.9470
 2.6010	 4.9200
 2.6020	 4.8330
 2.6030	 4.8140
 2.6040	 4.8230
 2.6060	 4.8030
 2.6070	 4.7210
 2.6080	 4.6050
 2.6100	 4.6490
 2.6110	 4.6440
 2.6120	 4.6270
 2.6140	 4.5870
 2.6150	 4.6550
 2.6160	 4.5580
 2.6180	 4.3890
 2.6190	 4.3710
 2.6200	 4.3480
 2.6220	 4.3530
 2.6230	 4.4270
 2.6240	 4.3720
 2.6260	 4.3540
 2.6270	 4.3250
 2.6280	 4.3060
 2.6300	 4.2030
 2.6310	 4.1130
 2.6320	 4.0800
 2.6340	 4.1660
 2.6350	 4.1340
 2.6360	 4.0950
 2.6380	 4.0650
 2.6390	 4.0920
 2.6400	 4.0280
 2.6420	 3.9950
 2.6430	 3.9530
 2.6440	 3.8930
 2.6460	 3.7900
 2.6470	 3.7940
 2.6480	 3.8180
 2.6500	 3.8820
 2.6510	 3.8880
 2.6520	 3.8780
 2.6540	 3.7980
 2.6550	 3.7740
 2.6570	 3.7480
 2.6580	 3.7710
 2.6590	 3.7270
 2.6610	 3.7410
 2.6620	 3.7180
 2.6630	 3.6850
 2.6650	 3.6200
 2.6660	 3.5890
 2.6670	 3.5740
 2.6690	 3.5790
 2.6700	 3.4940
 2.6720	 3.4820
 2.6730	 3.5320
 2.6740	 3.5800
 2.6760	 3.5050
 2.6770	 3.4870
 2.6780	 3.4690
 2.6800	 3.4810
 2.6810	 3.4670
 2.6830	 3.4660
 2.6840	 3.4580
 2.6850	 3.4660
 2.6870	 3.4130
 2.6880	 3.3330
 2.6900	 3.2820
 2.6910	 3.3950
 2.6920	 3.3770
 2.6940	 3.3460
 2.6950	 3.3780
 2.6970	 3.3600
 2.6980	 3.3280
 2.6990	 3.3770
 2.7010	 3.4040
 2.7020	 3.4570
 2.7040	 3.4190
 2.7050	 3.4260
 2.7060	 3.4130
 2.7080	 3.3880
 2.7090	 3.3250
 2.7110	 3.2750
 2.7120	 3.3020
 2.7130	 3.4190
 2.7150	 3.3590
 2.7160	 3.3710
 2.7180	 3.5060
 2.7190	 3.5160
 2.7210	 3.3900
 2.7220	 3.4550
 2.7230	 3.4580
 2.7250	 3.3990
 2.7260	 3.3420
 2.7280	 3.4030
 2.7290	 3.4520
 2.7310	 3.4560
 2.7320	 3.4350
 2.7340	 3.4570
 2.7350	 3.4230
 2.7360	 3.4280
 2.7380	 3.3980
 2.7390	 3.4530
 2.7410	 3.4960
 2.7420	 3.4890
 2.7440	 3.5010
 2.7450	 3.5700
 2.7470	 3.5380
 2.7480	 3.5370
 2.7490	 3.5170
 2.7510	 3.5430
 2.7520	 3.5190
 2.7540	 3.5040
 2.7550	 3.4700
 2.7570	 3.5350
 2.7580	 3.5910
 2.7600	 3.6590
 2.7610	 3.5910
 2.7630	 3.5650
 2.7640	 3.6150
 2.7660	 3.6600
 2.7670	 3.5940
 2.7690	 3.5790
 2.7700	 3.6180
 2.7720	 3.6500
 2.7730	 3.5800
 2.7740	 3.6190
 2.7760	 3.6380
 2.7770	 3.6960
 2.7790	 3.6170
 2.7800	 3.5570
 2.7820	 3.5300
 2.7830	 3.6040
 2.7850	 3.6130
 2.7860	 3.6110
 2.7880	 3.5570
 2.7890	 3.6220
 2.7910	 3.6740
 2.7920	 3.6800
 2.7940	 3.5690
 2.7950	 3.6220
 2.7970	 3.6830
 2.7980	 3.7200
 2.8000	 3.7110
 2.8010	 3.7420
 2.8030	 3.7170
 2.8040	 3.7160
 2.8060	 3.6600
 2.8080	 3.6550
 2.8090	 3.6550
 2.8110	 3.7020
 2.8120	 3.7390
 2.8140	 3.7660
 2.8150	 3.7100
 2.8170	 3.7810
 2.8180	 3.7910
 2.8200	 3.7470
 2.8210	 3.7000
 2.8230	 3.7810
 2.8240	 3.7890
 2.8260	 3.7700
 2.8270	 3.7090
 2.8290	 3.7700
 2.8310	 3.8020
 2.8320	 3.8030
 2.8340	 3.7700
 2.8350	 3.8330
 2.8370	 3.8060
 2.8380	 3.8070
 2.8400	 3.8240
 2.8410	 3.8740
 2.8430	 3.8600
 2.8440	 3.8290
 2.8460	 3.7550
 2.8480	 3.8010
 2.8490	 3.8280
 2.8510	 3.8260
 2.8520	 3.8150
 2.8540	 3.8910
 2.8550	 3.8540
 2.8570	 3.8590
 2.8590	 3.8700
 2.8600	 3.8540
 2.8620	 3.8270
 2.8630	 3.7890
 2.8650	 3.7680
 2.8660	 3.8790
 2.8680	 3.8320
 2.8700	 3.8610
 2.8710	 3.8870
 2.8730	 3.8830
 2.8740	 3.8510
 2.8760	 3.9210
 2.8780	 3.9360
 2.8790	 3.8990
 2.8810	 3.7940
 2.8820	 3.8010
 2.8840	 3.8330
 2.8860	 3.9370
 2.8870	 3.9300
 2.8890	 3.8910
 2.8900	 3.8020
 2.8920	 3.8030
 2.8940	 3.8690
 2.8950	 3.9470
 2.8970	 3.8810
 2.8990	 3.8690
 2.9000	 3.8650
 2.9020	 3.8680
 2.9030	 3.8470
 2.9050	 3.9150
 2.9070	 3.8690
 2.9080	 3.8520
 2.9100	 3.8140
 2.9120	 3.8640
 2.9130	 3.8630
 2.9150	 3.8710
 2.9160	 3.8410
 2.9180	 3.8520
 2.9200	 3.8100
 2.9210	 3.8550
 2.9230	 3.8810
 2.9250	 3.8480
 2.9260	 3.7850
 2.9280	 3.8160
 2.9300	 3.8460
 2.9310	 3.8840
 2.9330	 3.8420
 2.9350	 3.8630
 2.9360	 3.8570
 2.9380	 3.8730
 2.9400	 3.8030
 2.9410	 3.8020
 2.9430	 3.7430
 2.9450	 3.7910
 2.9460	 3.7940
 2.9480	 3.7870
 2.9500	 3.7600
 2.9510	 3.7430
 2.9530	 3.7590
 2.9550	 3.8160
 2.9560	 3.8020
 2.9580	 3.7570
 2.9600	 3.6810
 2.9610	 3.7470
 2.9630	 3.8190
 2.9650	 3.8610
 2.9670	 3.8270
 2.9680	 3.8040
 2.9700	 3.7050
 2.9720	 3.6900
 2.9730	 3.6310
 2.9750	 3.6330
 2.9770	 3.6430
 2.9780	 3.7060
 2.9800	 3.6890
 2.9820	 3.6410
 2.9840	 3.6530
 2.9850	 3.6770
 2.9870	 3.6260
 2.9890	 3.6620
 2.9900	 3.6030
 2.9920	 3.6490
 2.9940	 3.6090
 2.9960	 3.6370
 2.9970	 3.6770
 2.9990	 3.7060
 3.0010	 3.6920
 3.0030	 3.6450
 3.0040	 3.5810
 3.0060	 3.5950
 3.0080	 3.5490
 3.0100	 3.5720
 3.0110	 3.5930
 3.0130	 3.6130
 3.0150	 3.5920
 3.0170	 3.5730
 3.0180	 3.5920
 3.0200	 3.6190
 3.0220	 3.5760
 3.0240	 3.6190
 3.0250	 3.5680
 3.0270	 3.5520
 3.0290	 3.5720
 3.0310	 3.5570
 3.0320	 3.4760
 3.0340	 3.5040
 3.0360	 3.4780
 3.0380	 3.5060
 3.0400	 3.5270
 3.0410	 3.5130
 3.0430	 3.4590
 3.0450	 3.4900
 3.0470	 3.5420
 3.0480	 3.5220
 3.0500	 3.4220
 3.0520	 3.5040
 3.0540	 3.5190
 3.0560	 3.5140
 3.0570	 3.5090
 3.0590	 3.5360
 3.0610	 3.5310
 3.0630	 3.5050
 3.0650	 3.4470
 3.0670	 3.4500
 3.0680	 3.3790
 3.0700	 3.3840
 3.0720	 3.3830
 3.0740	 3.3920
 3.0760	 3.4030
 3.0770	 3.4540
 3.0790	 3.4520
 3.0810	 3.4900
 3.0830	 3.4840
 3.0850	 3.5030
 3.0870	 3.4810
 3.0880	 3.4710
 3.0900	 3.3980
 3.0920	 3.4260
 3.0940	 3.4370
 3.0960	 3.4280
 3.0980	 3.3770
 3.1000	 3.3760
 3.1010	 3.3920
 3.1030	 3.3730
 3.1050	 3.3510
 3.1070	 3.3790
 3.1090	 3.3870
 3.1110	 3.4010
 3.1130	 3.3080
 3.1140	 3.2980
 3.1160	 3.2970
 3.1180	 3.3300
 3.1200	 3.3070
 3.1220	 3.3270
 3.1240	 3.3250
 3.1260	 3.3420
 3.1280	 3.3340
 3.1290	 3.3460
 3.1310	 3.3500
 3.1330	 3.3690
 3.1350	 3.2970
 3.1370	 3.3260
 3.1390	 3.3000
 3.1410	 3.3230
 3.1430	 3.3570
 3.1450	 3.3200
 3.1470	 3.2290
 3.1480	 3.2810
 3.1500	 3.2540
 3.1520	 3.2610
 3.1540	 3.2740
 3.1560	 3.2840
 3.1580	 3.2360
 3.1600	 3.2360
 3.1620	 3.2050
 3.1640	 3.2140
 3.1660	 3.2620
 3.1680	 3.2830
 3.1700	 3.2290
 3.1720	 3.1800
 3.1730	 3.1290
 3.1750	 3.1650
 3.1770	 3.1750
 3.1790	 3.2030
 3.1810	 3.1840
 3.1830	 3.2040
 3.1850	 3.2020
 3.1870	 3.1760
 3.1890	 3.1260
 3.1910	 3.1480
 3.1930	 3.1430
 3.1950	 3.1840
 3.1970	 3.1720
 3.1990	 3.1310
 3.2010	 3.1060
 3.2030	 3.1470
 3.2050	 3.1370
 3.2070	 3.1150
 3.2090	 3.1000
 3.2110	 3.1440
 3.2130	 3.1390
 3.2150	 3.1560
 3.2170	 3.1250
 3.2190	 3.1060
 3.2210	 3.0670
 3.2230	 3.0880
 3.2250	 3.1110
 3.2270	 3.1350
 3.2290	 3.0760
 3.2310	 3.0350
 3.2330	 3.0520
 3.2350	 3.0670
 3.2370	 3.0370
 3.2390	 3.0670
 3.2410	 3.0710
 3.2430	 3.0700
 3.2450	 3.0380
 3.2470	 3.0460
 3.2490	 3.0080
 3.2510	 3.0270
 3.2530	 3.0520
 3.2550	 3.0480
 3.2570	 3.0180
 3.2590	 3.0620
 3.2610	 3.0420
 3.2630	 3.0400
 3.2650	 3.0340
 3.2670	 3.0420
 3.2700	 3.0190
 3.2720	 3.0060
 3.2740	 2.9850
 3.2760	 2.9810
 3.2780	 2.9350
 3.2800	 2.9240
 3.2820	 2.9530
 3.2840	 2.9510
 3.2860	 2.9370
 3.2880	 2.9270
 3.2900	 2.8700
 3.2920	 2.8720
 3.2940	 2.9020
 3.2970	 2.9140
 3.2990	 2.8540
 3.3010	 2.9170
 3.3030	 2.9830
 3.3050	 2.9820
 3.3070	 2.8960
 3.3090	 2.8570
 3.3110	 2.8230
 3.3130	 2.8360
 3.3160	 2.8330
 3.3180	 2.8410
 3.3200	 2.8440
 3.3220	 2.8870
 3.3240	 2.8760
 3.3260	 2.8310
 3.3280	 2.7930
 3.3300	 2.7850
 3.3330	 2.7590
 3.3350	 2.7920
 3.3370	 2.7480
 3.3390	 2.7370
 3.3410	 2.7430
 3.3430	 2.7490
 3.3450	 2.6940
 3.3480	 2.6760
 3.3500	 2.6630
 3.3520	 2.7360
 3.3540	 2.7230
 3.3560	 2.6350
 3.3580	 2.6000
 3.3610	 2.6160
 3.3630	 2.5940
 3.3650	 2.5690
 3.3670	 2.5200
 3.3690	 2.5370
 3.3720	 2.5430
 3.3740	 2.5070
 3.3760	 2.5010
 3.3780	 2.5510
 3.3800	 2.5880
 3.3830	 2.6240
 3.3850	 2.5890
 3.3870	 2.5590
 3.3890	 2.5160
 3.3910	 2.4980
 3.3940	 2.4510
 3.3960	 2.4460
 3.3980	 2.4400
 3.4000	 2.4680
 3.4030	 2.4760
 3.4050	 2.5300
 3.4070	 2.5690
 3.4090	 2.6200
 3.4110	 2.6830
 3.4140	 2.8260
 3.4160	 3.0180
 3.4180	 3.2700
 3.4200	 3.5700
 3.4230	 4.0790
 3.4250	 4.7470
 3.4270	 5.5400
 3.4300	 6.0510
 3.4320	 6.0240
 3.4340	 5.5720
 3.4360	 5.1660
 3.4390	 4.8750
 3.4410	 4.6230
 3.4430	 4.4640
 3.4450	 4.3650
 3.4480	 4.2820
 3.4500	 4.2740
 3.4520	 4.2240
 3.4550	 4.1590
 3.4570	 4.0940
 3.4590	 4.1100
 3.4620	 4.0620
 3.4640	 4.0090
 3.4660	 3.9270
 3.4690	 3.8820
 3.4710	 3.8280
 3.4730	 3.7800
 3.4760	 3.7100
 3.4780	 3.6310
 3.4800	 3.5490
 3.4830	 3.5590
 3.4850	 3.5220
 3.4870	 3.4370
 3.4900	 3.3400
 3.4920	 3.3280
 3.4940	 3.3080
 3.4970	 3.2930
 3.4990	 3.3160
 3.5010	 3.3810
 3.5040	 3.5140
 3.5060	 3.9680
 3.5080	 4.8460
 3.5110	 5.6910
 3.5130	 5.7950
 3.5160	 5.4320
 3.5180	 5.0690
 3.5200	 4.8590
 3.5230	 4.6580
 3.5250	 4.4860
 3.5280	 4.3950
 3.5300	 4.3600
 3.5320	 4.2320
 3.5350	 4.1510
 3.5370	 4.1350
 3.5400	 4.1340
 3.5420	 4.1210
 3.5440	 4.1130
 3.5470	 4.0420
 3.5490	 4.0060
 3.5520	 3.9880
 3.5540	 3.9600
 3.5570	 3.9350
 3.5590	 3.9440
 3.5610	 3.9170
 3.5640	 3.8930
 3.5660	 3.9080
 3.5690	 3.9300
 3.5710	 3.9140
 3.5740	 3.8910
 3.5760	 3.8750
 3.5790	 3.9000
 3.5810	 3.8600
 3.5840	 3.8530
 3.5860	 3.8340
 3.5890	 3.8400
 3.5910	 3.8290
 3.5940	 3.8400
 3.5960	 3.7760
 3.5990	 3.7790
 3.6010	 3.8110
 3.6040	 3.8360
 3.6060	 3.8100
 3.6090	 3.8210
 3.6110	 3.8400
 3.6140	 3.8400
 3.6160	 3.7990
 3.6190	 3.7780
 3.6210	 3.8110
 3.6240	 3.8460
 3.6260	 3.8010
 3.6290	 3.7910
 3.6310	 3.7950
 3.6340	 3.8180
 3.6360	 3.8010
 3.6390	 3.8110
 3.6410	 3.7850
 3.6440	 3.7880
 3.6470	 3.8220
 3.6490	 3.8210
 3.6520	 3.8100
 3.6540	 3.8480
 3.6570	 3.8480
 3.6590	 3.8400
 3.6620	 3.8370
 3.6650	 3.8600
 3.6670	 3.8700
 3.6700	 3.8790
 3.6720	 3.8880
 3.6750	 3.8780
 3.6780	 3.8810
 3.6800	 3.9070
 3.6830	 3.9160
 3.6850	 3.9160
 3.6880	 3.8990
 3.6910	 3.9140
 3.6930	 3.8980
 3.6960	 3.8790
 3.6990	 3.8740
 3.7010	 3.9170
 3.7040	 3.9600
 3.7070	 3.9800
 3.7090	 3.9640
 3.7120	 3.9570
 3.7150	 3.9590
 3.7170	 3.9750
 3.7200	 3.9530
 3.7230	 3.9690
 3.7250	 3.9770
 3.7280	 3.9890
 3.7310	 3.9880
 3.7330	 4.0130
 3.7360	 4.0050
 3.7390	 4.0020
 3.7410	 3.9940
 3.7440	 4.0100
 3.7470	 4.0390
 3.7490	 4.1010
 3.7520	 4.1160
 3.7550	 4.1070
 3.7580	 4.0740
 3.7600	 4.1110
 3.7630	 4.1040
 3.7660	 4.0840
 3.7690	 4.0640
 3.7710	 4.0930
 3.7740	 4.1200
 3.7770	 4.1220
 3.7790	 4.1320
 3.7820	 4.1490
 3.7850	 4.1670
 3.7880	 4.1900
 3.7910	 4.1970
 3.7930	 4.2120
 3.7960	 4.2000
 3.7990	 4.2160
 3.8020	 4.2330
 3.8040	 4.2330
 3.8070	 4.2180
 3.8100	 4.2190
 3.8130	 4.2030
 3.8160	 4.2060
 3.8180	 4.2100
 3.8210	 4.2470
 3.8240	 4.2850
 3.8270	 4.2870
 3.8300	 4.2520
 3.8330	 4.2880
 3.8350	 4.3010
 3.8380	 4.2890
 3.8410	 4.2860
 3.8440	 4.2930
 3.8470	 4.2930
 3.8500	 4.3200
 3.8520	 4.3250
 3.8550	 4.2970
 3.8580	 4.2900
 3.8610	 4.3150
 3.8640	 4.3020
 3.8670	 4.3320
 3.8700	 4.3500
 3.8730	 4.3250
 3.8760	 4.3060
 3.8780	 4.2910
 3.8810	 4.2970
 3.8840	 4.3440
 3.8870	 4.3700
 3.8900	 4.3630
 3.8930	 4.3390
 3.8960	 4.3130
 3.8990	 4.2720
 3.9020	 4.3000
 3.9050	 4.3080
 3.9080	 4.3150
 3.9110	 4.3180
 3.9140	 4.3140
 3.9170	 4.2860
 3.9190	 4.2770
 3.9220	 4.2960
 3.9250	 4.3250
 3.9280	 4.3170
 3.9310	 4.2990
 3.9340	 4.3070
 3.9370	 4.2910
 3.9400	 4.2680
 3.9430	 4.2920
 3.9460	 4.3090
 3.9490	 4.3310
 3.9520	 4.3190
 3.9550	 4.3160
 3.9580	 4.2980
 3.9610	 4.2680
 3.9640	 4.2910
 3.9670	 4.3340
 3.9700	 4.2710
 3.9740	 4.2410
 3.9770	 4.2610
 3.9800	 4.2600
 3.9830	 4.2530
 3.9860	 4.2650
 3.9890	 4.2290
 3.9920	 4.2280
 3.9950	 4.2330
 3.9980	 4.2240
 4.0010	 4.2420
 4.0040	 4.2560
 4.0070	 4.2280
 4.0100	 4.2210
 4.0140	 4.2130
 4.0170	 4.2220
 4.0200	 4.2130
 4.0230	 4.2010
 4.0260	 4.1950
 4.0290	 4.1880
 4.0320	 4.1980
 4.0350	 4.2120
 4.0390	 4.2090
 4.0420	 4.1980
 4.0450	 4.1960
 4.0480	 4.2160
 4.0510	 4.2070
 4.0540	 4.2070
 4.0570	 4.2000
 4.0610	 4.1630
 4.0640	 4.1080
 4.0670	 4.1260
 4.0700	 4.1680
 4.0730	 4.1710
 4.0770	 4.1430
 4.0800	 4.1170
 4.0830	 4.1250
 4.0860	 4.1470
 4.0890	 4.1430
 4.0930	 4.1370
 4.0960	 4.1470
 4.0990	 4.1540
 4.1020	 4.1020
 4.1060	 4.0910
 4.1090	 4.1180
 4.1120	 4.0950
 4.1150	 4.0810
 4.1190	 4.1000
 4.1220	 4.0940
 4.1250	 4.0970
 4.1290	 4.0960
 4.1320	 4.0730
 4.1350	 4.0550
 4.1380	 4.0880
 4.1420	 4.1060
 4.1450	 4.0860
 4.1480	 4.0240
 4.1520	 4.0280
 4.1550	 4.0690
 4.1580	 4.0570
 4.1620	 4.0220
 4.1650	 4.0100
 4.1680	 4.0200
 4.1720	 4.0620
 4.1750	 4.0430
 4.1780	 4.0260
 4.1820	 3.9900
 4.1850	 3.9720
 4.1890	 4.0020
 4.1920	 4.0020
 4.1950	 3.9990
 4.1990	 3.9950
 4.2020	 3.9750
 4.2060	 3.9660
 4.2090	 3.9440
 4.2120	 3.9220
 4.2160	 3.9680
 4.2190	 4.0150
 4.2230	 3.9860
 4.2260	 4.0210
 4.2300	 4.0380
 4.2330	 3.9790
 4.2360	 3.9210
 4.2400	 3.9510
 4.2430	 3.9590
 4.2470	 3.8800
 4.2500	 3.8710
 4.2540	 3.9520
 4.2570	 3.9340
 4.2610	 3.9010
 4.2640	 3.9850
 4.2680	 3.9850
 4.2710	 3.9150
 4.2750	 3.9050
 4.2780	 3.9200
 4.2820	 3.9290
 4.2850	 3.9160
 4.2890	 3.9140
 4.2930	 3.9530
 4.2960	 3.9570
 4.3000	 3.9510
 4.3030	 3.8630
 4.3070	 3.8570
 4.3100	 3.9120
 4.3140	 3.9210
 4.3180	 3.8760
 4.3210	 3.8020
 4.3250	 3.8150
 4.3280	 3.8580
 4.3320	 3.8490
 4.3360	 3.8370
 4.3390	 3.8290
 4.3430	 3.8060
 4.3470	 3.8090
 4.3500	 3.8100
 4.3540	 3.8260
 4.3580	 3.8420
 4.3610	 3.8300
 4.3650	 3.8400
 4.3690	 3.8190
 4.3720	 3.8040
 4.3760	 3.8030
 4.3800	 3.8290
 4.3830	 3.8550
 4.3870	 3.8460
 4.3910	 3.8050
 4.3940	 3.8030
 4.3980	 3.8230
 4.4020	 3.8410
 4.4060	 3.8240
 4.4090	 3.8000
 4.4130	 3.8040
 4.4170	 3.8390
 4.4210	 3.8240
 4.4240	 3.7790
 4.4280	 3.7320
 4.4320	 3.7450
 4.4360	 3.7550
 4.4400	 3.7530
 4.4430	 3.7450
 4.4470	 3.7360
 4.4510	 3.7980
 4.4550	 3.7830
 4.4590	 3.7370
 4.4630	 3.7410
 4.4660	 3.7340
 4.4700	 3.7240
 4.4740	 3.7410
 4.4780	 3.7470
 4.4820	 3.7180
 4.4860	 3.7100
 4.4900	 3.6990
 4.4930	 3.7060
 4.4970	 3.7030
 4.5010	 3.6980
 4.5050	 3.6950
 4.5090	 3.6880
 4.5130	 3.6950
 4.5170	 3.7100
 4.5210	 3.7200
 4.5250	 3.7400
 4.5290	 3.7160
 4.5330	 3.7160
 4.5370	 3.7210
 4.5410	 3.7210
 4.5450	 3.7390
 4.5490	 3.7390
 4.5530	 3.6890
 4.5570	 3.6790
 4.5610	 3.6990
 4.5650	 3.7000
 4.5690	 3.6920
 4.5730	 3.6930
 4.5770	 3.6990
 4.5810	 3.7170
 4.5850	 3.7030
 4.5890	 3.6860
 4.5930	 3.6630
 4.5970	 3.6560
 4.6010	 3.6450
 4.6050	 3.6320
 4.6090	 3.6720
 4.6130	 3.6810
 4.6170	 3.6740
 4.6220	 3.6870
 4.6260	 3.6750
 4.6300	 3.6690
 4.6340	 3.6460
 4.6380	 3.6620
 4.6420	 3.7040
 4.6460	 3.6890
 4.6510	 3.6540
 4.6550	 3.6320
 4.6590	 3.6130
 4.6630	 3.6140
 4.6670	 3.6310
 4.6720	 3.6380
 4.6760	 3.6420
 4.6800	 3.6590
 4.6840	 3.6310
 4.6880	 3.6370
 4.6930	 3.6330
 4.6970	 3.5950
 4.7010	 3.6090
 4.7050	 3.6440
 4.7100	 3.6020
 4.7140	 3.5790
 4.7180	 3.5750
 4.7230	 3.6160
 4.7270	 3.6400
 4.7310	 3.6370
 4.7360	 3.6130
 4.7400	 3.5900
 4.7440	 3.5780
 4.7490	 3.5980
 4.7530	 3.5710
 4.7570	 3.5360
 4.7620	 3.5740
 4.7660	 3.6430
 4.7700	 3.6190
 4.7750	 3.6080
 4.7790	 3.5960
 4.7840	 3.5880
 4.7880	 3.5540
 4.7920	 3.5530
 4.7970	 3.5810
 4.8010	 3.6160
 4.8060	 3.5960
 4.8100	 3.5660
 4.8150	 3.5260
 4.8190	 3.5270
 4.8240	 3.5530
 4.8280	 3.5800
 4.8330	 3.5520
 4.8370	 3.5470
 4.8420	 3.5540
 4.8460	 3.5480
 4.8510	 3.5410
 4.8550	 3.5420
 4.8600	 3.5230
 4.8640	 3.5390
 4.8690	 3.5290
 4.8740	 3.5550
 4.8780	 3.5670
 4.8830	 3.5630
 4.8870	 3.5350
 4.8920	 3.5140
 4.8970	 3.5480
 4.9010	 3.6040
 4.9060	 3.5910
 4.9100	 3.5970
 4.9150	 3.5720
 4.9200	 3.5520
 4.9240	 3.5470
 4.9290	 3.5450
 4.9340	 3.5320
 4.9390	 3.5400
 4.9430	 3.5300
 4.9480	 3.5750
 4.9530	 3.5880
 4.9570	 3.5440
 4.9620	 3.5100
 4.9670	 3.5560
 4.9720	 3.5560
 4.9760	 3.5540
 4.9810	 3.5240
 4.9860	 3.4890
 4.9910	 3.4790
 4.9960	 3.4940
 5.0000	 3.4960
 5.0050	 3.4970
 5.0100	 3.4930
 5.0150	 3.5070
 5.0200	 3.5030
 5.0250	 3.5020
 5.0300	 3.4910
 5.0340	 3.4910
 5.0390	 3.5010
 5.0440	 3.5410
 5.0490	 3.5160
 5.0540	 3.4920
 5.0590	 3.4900
 5.0640	 3.5090
 5.0690	 3.4840
 5.0740	 3.4840
 5.0790	 3.4740
 5.0840	 3.4570
 5.0890	 3.4590
 5.0940	 3.5060
 5.0990	 3.5320
 5.1040	 3.5540
 5.1090	 3.4910
 5.1140	 3.4860
 5.1190	 3.4860
 5.1240	 3.4800
 5.1290	 3.5100
 5.1340	 3.5360
 5.1390	 3.4850
 5.1440	 3.4450
 5.1490	 3.4640
 5.1550	 3.5080
 5.1600	 3.5060
 5.1650	 3.4840
 5.1700	 3.4540
 5.1750	 3.4810
 5.1800	 3.4970
 5.1850	 3.5310
 5.1910	 3.4930
 5.1960	 3.4880
 5.2010	 3.4590
 5.2060	 3.4610
 5.2110	 3.4570
 5.2170	 3.4480
 5.2220	 3.4440
 5.2270	 3.4770
 5.2330	 3.4280
 5.2380	 3.4270
 5.2430	 3.4690
 5.2480	 3.5250
 5.2540	 3.5140
 5.2590	 3.4850
 5.2640	 3.4440
 5.2700	 3.4480
 5.2750	 3.4540
 5.2800	 3.4800
 5.2860	 3.4570
 5.2910	 3.4600
 5.2970	 3.4570
 5.3020	 3.4780
 5.3080	 3.4760
 5.3130	 3.4630
 5.3180	 3.4330
 5.3240	 3.4500
 5.3290	 3.4220
 5.3350	 3.4050
 5.3400	 3.4000
 5.3460	 3.4100
 5.3510	 3.4250
 5.3570	 3.4540
 5.3620	 3.4080
 5.3680	 3.4020
 5.3740	 3.4000
 5.3790	 3.3860
 5.3850	 3.3710
 5.3900	 3.3950
 5.3960	 3.3600
 5.4010	 3.3630
 5.4070	 3.3580
 5.4130	 3.3550
 5.4180	 3.3190
 5.4240	 3.3110
 5.4300	 3.2860
 5.4350	 3.3210
 5.4410	 3.3260
 5.4470	 3.3350
 5.4530	 3.3170
 5.4580	 3.3110
 5.4640	 3.2600
 5.4700	 3.2940
 5.4760	 3.3270
 5.4810	 3.3530
 5.4870	 3.3230
 5.4930	 3.2950
 5.4990	 3.2310
 5.5050	 3.2260
 5.5110	 3.2160
 5.5160	 3.2270
 5.5220	 3.2080
 5.5280	 3.2720
 5.5340	 3.2670
 5.5400	 3.2400
 5.5460	 3.2150
 5.5520	 3.2200
 5.5580	 3.1810
 5.5640	 3.1690
 5.5700	 3.1690
 5.5760	 3.1480
 5.5820	 3.1220
 5.5880	 3.1560
 5.5940	 3.1190
 5.6000	 3.1260
 5.6060	 3.0940
 5.6120	 3.0790
 5.6180	 3.0850
 5.6240	 3.1070
 5.6300	 3.0440
 5.6360	 3.0140
 5.6420	 2.9730
 5.6490	 3.0210
 5.6550	 3.0260
 5.6610	 3.0090
 5.6670	 2.9510
 5.6730	 2.9180
 5.6800	 2.9320
 5.6860	 2.9400
 5.6920	 2.8320
 5.6980	 2.7990
 5.7050	 2.7700
 5.7110	 2.7550
 5.7170	 2.7300
 5.7230	 2.7390
 5.7300	 2.6550
 5.7360	 2.6580
 5.7420	 2.6800
 5.7490	 2.8010
 5.7550	 2.9340
 5.7620	 3.0440
 5.7680	 3.1110
 5.7740	 3.2480
 5.7810	 3.3410
 5.7870	 3.4660
 5.7940	 3.4620
 5.8000	 3.4460
 5.8070	 3.4440
 5.8130	 3.4650
 5.8200	 3.3690
 5.8260	 3.3450
 5.8330	 3.3480
 5.8390	 3.4300
 5.8460	 3.4160
 5.8530	 3.3950
 5.8590	 3.3800
 5.8660	 3.3900
 5.8730	 3.3430
 5.8790	 3.3240
 5.8860	 3.3010
 5.8930	 3.3610
 5.8990	 3.2880
 5.9060	 3.3130
 5.9130	 3.2850
 5.9190	 3.3050
 5.9260	 3.2540
 5.9330	 3.1850
 5.9400	 3.1060
 5.9470	 3.1450
 5.9530	 3.1440
 5.9600	 3.1540
 5.9670	 3.0600
 5.9740	 3.0350
 5.9810	 3.0060
 5.9880	 2.9880
 5.9950	 2.9260
 6.0020	 2.9490
 6.0090	 2.9160
 6.0160	 2.9300
 6.0230	 2.8370
 6.0300	 2.7800
 6.0370	 2.7620
 6.0440	 2.7940
 6.0510	 2.6920
 6.0580	 2.7340
 6.0650	 2.7410
 6.0720	 2.6790
 6.0790	 2.5940
 6.0860	 2.6540
 6.0930	 2.6250
 6.1010	 2.6050
 6.1080	 2.5740
 6.1150	 2.6030
 6.1220	 2.6080
 6.1290	 2.6610
 6.1370	 2.6600
 6.1440	 2.7180
 6.1510	 2.7060
 6.1580	 2.7070
 6.1660	 2.6840
 6.1730	 2.7630
 6.1800	 2.8020
 6.1880	 2.8760
 6.1950	 2.8900
 6.2030	 2.9130
 6.2100	 2.8680
 6.2180	 2.9310
 6.2250	 2.9480
 6.2320	 2.9510
 6.2400	 2.9010
 6.2480	 2.9560
 6.2550	 2.9460
 6.2630	 2.9190
 6.2700	 2.8620
 6.2780	 2.8860
 6.2850	 2.9230
 6.2930	 2.9830
 6.3010	 2.9150
 6.3080	 2.9160
 6.3160	 2.9420
 6.3240	 3.0010
 6.3310	 2.9790
 6.3390	 2.9610
 6.3470	 2.8850
 6.3550	 2.9810
 6.3620	 2.9470
 6.3700	 2.9290
 6.3780	 2.9270
 6.3860	 2.9260
 6.3940	 2.8660
 6.4020	 2.9060
 6.4100	 2.8630
 6.4180	 2.9160
 6.4260	 2.8970
 6.4340	 2.9440
 6.4420	 2.9360
 6.4500	 2.9630
 6.4580	 2.9550
 6.4660	 2.9540
 6.4740	 2.8980
 6.4820	 2.9390
 6.4900	 2.9040
 6.4980	 2.9320
 6.5060	 2.9330
 6.5140	 2.9540
 6.5230	 2.9210
 6.5310	 2.9580
 6.5390	 2.9200
 6.5470	 2.9130
 6.5560	 2.8690
 6.5640	 2.9550
 6.5720	 2.9330
 6.5800	 2.9680
 6.5890	 2.9200
 6.5970	 2.9460
 6.6060	 2.9690
 6.6140	 2.9840
 6.6230	 2.9000
 6.6310	 2.9140
 6.6390	 2.8960
 6.6480	 2.9460
 6.6570	 2.9020
 6.6650	 2.8980
 6.6740	 2.9090
 6.6820	 2.9400
 6.6910	 2.8760
 6.7000	 2.8850
 6.7080	 2.8200
 6.7170	 2.8350
 6.7260	 2.7510
 6.7340	 2.7550
 6.7430	 2.7380
 6.7520	 2.7490
 6.7610	 2.6640
 6.7690	 2.5930
 6.7780	 2.6070
 6.7870	 2.9410
 6.7960	 3.0970
 6.8050	 3.0640
 6.8140	 2.9820
 6.8230	 3.0460
 6.8320	 3.2500
 6.8410	 3.5170
 6.8500	 3.3650
 6.8590	 3.2070
 6.8680	 3.1250
 6.8770	 3.2050
 6.8860	 3.2440
 6.8960	 3.2650
 6.9050	 3.1550
 6.9140	 3.1500
 6.9230	 3.1230
 6.9320	 3.1580
 6.9420	 3.1020
 6.9510	 3.1500
 6.9600	 3.0660
 6.9700	 3.0480
 6.9790	 2.9930
 6.9880	 2.9810
 6.9980	 2.9300
 7.0070	 2.9490
 7.0170	 2.8800
 7.0260	 2.8970
 7.0360	 2.8320
 7.0450	 2.8280
 7.0550	 2.8060
 7.0650	 2.8670
 7.0740	 2.8360
 7.0840	 2.9040
 7.0940	 2.8430
 7.1030	 2.8310
 7.1130	 2.7680
 7.1230	 2.8210
 7.1330	 2.7960
 7.1420	 2.7960
 7.1520	 2.7860
 7.1620	 2.8330
 7.1720	 2.7860
 7.1820	 2.8780
 7.1920	 2.8620
 7.2020	 2.8920
 7.2120	 2.8410
 7.2220	 2.8630
 7.2320	 2.8280
 7.2420	 2.8150
 7.2520	 2.7530
 7.2620	 2.8110
 7.2730	 2.7950
 7.2830	 2.8150
 7.2930	 2.7290
 7.3030	 2.7400
 7.3140	 2.7010
 7.3240	 2.7350
 7.3340	 2.6920
 7.3450	 2.7820
 7.3550	 2.7340
 7.3660	 2.7530
 7.3760	 2.7330
 7.3870	 2.8120
 7.3970	 2.7560
 7.4080	 2.7740
 7.4180	 2.7270
 7.4290	 2.7830
 7.4400	 2.7220
 7.4500	 2.7140
 7.4610	 2.6580
 7.4720	 2.6590
 7.4830	 2.5770
 7.4930	 2.6120
 7.5040	 2.5930
 7.5150	 2.6400
 7.5260	 2.5500
 7.5370	 2.5910
 7.5480	 2.5890
 7.5590	 2.6460
 7.5700	 2.5830
 7.5810	 2.6340
 7.5920	 2.5960
 7.6030	 2.6270
 7.6140	 2.5760
 7.6260	 2.6110
 7.6370	 2.5420
 7.6480	 2.5320
 7.6590	 2.5310
 7.6710	 2.6030
 7.6820	 2.5700
 7.6940	 2.6540
 7.7050	 2.6110
 7.7160	 2.6090
 7.7280	 2.5590
 7.7390	 2.6400
 7.7510	 2.5980
 7.7630	 2.6180
 7.7740	 2.5630
 7.7860	 2.5660
 7.7980	 2.5120
 7.8090	 2.5480
 7.8210	 2.5190
 7.8330	 2.5980
 7.8450	 2.5200
 7.8570	 2.4940
 7.8690	 2.4370
 7.8810	 2.5250
 7.8930	 2.4420
 7.9050	 2.4750
 7.9170	 2.4240
 7.9290	 2.4720
 7.9410	 2.4210
 7.9530	 2.4670
 7.9650	 2.4130
 7.9780	 2.4550
 7.9900	 2.3470
 8.0020	 2.3210
 8.0150	 2.2940
 8.0270	 2.4250
 8.0390	 2.3640
 8.0520	 2.4040
 8.0640	 2.3640
 8.0770	 2.4220
 8.0900	 2.3790
 8.1020	 2.4680
 8.1150	 2.4000
 8.1280	 2.5170
 8.1400	 2.5460
 8.1530	 2.5810
 8.1660	 2.5000
 8.1790	 2.6000
 8.1920	 2.5420
 8.2050	 2.5870
 8.2180	 2.5080
 8.2310	 2.5740
 8.2440	 2.5410
 8.2570	 2.6400
 8.2700	 2.5560
 8.2830	 2.5970
 8.2970	 2.5560
 8.3100	 2.6100
 8.3230	 2.5160
 8.3370	 2.6630
 8.3500	 2.6600
 8.3640	 2.7550
 8.3770	 2.6670
 8.3910	 2.7280
 8.4040	 2.6350
 8.4180	 2.7140
 8.4320	 2.6970
 8.4450	 2.8100
 8.4590	 2.7650
 8.4730	 2.8540
 8.4870	 2.6700
 8.5010	 2.7390
 8.5150	 2.7140
 8.5290	 2.7490
 8.5430	 2.6010
 8.5570	 2.6220
 8.5710	 2.5030
 8.5850	 2.4980
 8.5990	 2.3950
 8.6140	 2.4630
 8.6280	 2.3900
 8.6420	 2.4440
 8.6570	 2.3480
 8.6710	 2.4390
 8.6860	 2.4070
 8.7000	 2.5010
 8.7150	 2.3750
 8.7300	 2.4400
 8.7440	 2.4180
 8.7590	 2.5640
 8.7740	 2.4960
 8.7890	 2.5900
 8.8040	 2.5590
 8.8190	 2.6750
 8.8340	 2.6000
 8.8490	 2.6140
 8.8640	 2.5030
 8.8790	 2.5810
 8.8940	 2.4380
 8.9100	 2.4330
 8.9250	 2.3350
 8.9400	 2.3740
 8.9560	 2.2340
 8.9710	 2.3360
 8.9870	 2.3210
 9.0020	 2.4470
 9.0180	 2.4130
 9.0340	 2.6150
 9.0500	 2.6200
 9.0650	 2.8280
 9.0810	 2.8540
 9.0970	 3.0300
 9.1130	 3.0810
 9.1290	 3.2220
 9.1450	 3.1990
 9.1620	 3.4240
 9.1780	 3.4430
 9.1940	 3.6090
 9.2100	 3.5760
 9.2270	 3.5360
 9.2430	 3.4230
 9.2600	 3.5350
 9.2760	 3.4120
 9.2930	 3.4780
 9.3100	 3.4060
 9.3260	 3.4870
 9.3430	 3.4100
 9.3600	 3.5390
 9.3770	 3.5120
 9.3940	 3.5740
 9.4110	 3.4220
 9.4280	 3.5760
 9.4450	 3.5680
 9.4620	 3.6240
 9.4800	 3.5020
 9.4970	 3.6280
 9.5150	 3.6350
 9.5320	 3.7650
 9.5500	 3.7180
 9.5670	 3.8360
 9.5850	 3.6860
 9.6030	 3.6680
 9.6200	 3.4710
 9.6380	 3.5110
 9.6560	 3.4500
 9.6740	 3.5580
 9.6920	 3.4410
 9.7110	 3.5630
 9.7290	 3.4650
 9.7470	 3.5030
 9.7650	 3.4520
 9.7840	 3.5700
 9.8020	 3.5230
 9.8210	 3.6880
 9.8390	 3.5790
 9.8580	 3.5570
 9.8770	 3.4560
 9.8960	 3.6160
 9.9150	 3.5940
 9.9340	 3.7460
 9.9530	 3.7450
 9.9720	 3.8800
 9.9910	 3.8590
10.0100	 3.9880
10.0300	 3.9150
10.0490	 4.0100
10.0690	 3.9610
10.0880	 4.0350
10.1080	 3.9320
10.1280	 4.0650
10.1480	 4.0880
10.1670	 4.2510
10.1870	 4.1590
10.2070	 4.1850
10.2280	 4.0860
10.2480	 4.1990
10.2680	 4.1370
10.2890	 4.1980
10.3090	 4.1120
10.3300	 4.1320
10.3500	 4.0030
10.3710	 4.0950
10.3920	 3.9800
10.4120	 4.1180
10.4330	 4.1040
10.4540	 4.2490
10.4760	 4.2550
10.4970	 4.4430
10.5180	 4.4210
10.5390	 4.5380
10.5610	 4.4830
10.5820	 4.6140
10.6040	 4.5330
10.6260	 4.6170
10.6480	 4.5000
10.6700	 4.5310
10.6920	 4.3890
10.7140	 4.4300
10.7360	 4.3040
10.7580	 4.4080
10.7800	 4.2840
10.8030	 4.3550
10.8250	 4.2820
10.8480	 4.3770
10.8710	 4.2390
10.8940	 4.3340
10.9170	 4.1820
10.9400	 4.1900
10.9630	 4.0670
10.9860	 4.2000
11.0090	 4.0710
11.0330	 4.1110
11.0560	 4.0000
11.0800	 4.1200
11.1040	 3.9890
11.1270	 4.0500
11.1510	 3.9130
11.1750	 4.0000
11.2000	 3.9350
11.2240	 4.0050
11.2480	 3.8170
11.2730	 3.9290
11.2970	 3.8580
11.3220	 3.9780
11.3470	 3.9120
11.3720	 3.9990
11.3970	 3.8240
11.4220	 3.8740
11.4470	 3.7410
11.4720	 3.8280
11.4980	 3.6520
11.5230	 3.7130
11.5490	 3.5700
11.5750	 3.6180
11.6000	 3.4830
11.6260	 3.4830
11.6530	 3.2890
11.6790	 3.4300
11.7050	 3.3060
11.7320	 3.3770
11.7580	 3.2540
11.7850	 3.3470
11.8120	 3.1670
11.8390	 3.2270
11.8660	 3.0730
11.8930	 3.1770
11.9200	 2.9410
11.9480	 3.0590
11.9760	 2.9260
12.0030	 2.9700
12.0310	 2.8340
12.0590	 2.9960
12.0870	 2.8540
12.1150	 2.9940
12.1440	 2.9050
12.1720	 2.9530
12.2010	 2.8140
12.2300	 2.9440
12.2590	 2.6620
12.2880	 2.7170
12.3170	 2.5320
12.3460	 2.6160
12.3760	 2.5350
12.4050	 2.7080
12.4350	 2.5120
12.4650	 2.5780
12.4950	 2.4110
12.5250	 2.6080
12.5550	 2.4310
12.5860	 2.5020
12.6170	 2.3230
12.6470	 2.4800
12.6780	 2.3110
12.7090	 2.4150
12.7410	 2.2400
12.7720	 2.3680
12.8030	 2.1630
12.8350	 2.2830
12.8670	 2.0790
12.8990	 2.2480
12.9310	 2.0880
12.9640	 2.1830
12.9960	 1.9890
13.0290	 2.0670
13.0610	 1.9030
13.0940	 2.1620
13.1280	 1.9210
13.1610	 1.9250
13.1940	 1.7260
13.2280	 1.9410
13.2620	 1.7720
13.2960	 1.8620
13.3300	 1.6940
13.3640	 1.8490
13.3990	 1.6420
13.4340	 1.8210
13.4690	 1.5910
13.5040	 1.6000
13.5390	 1.4030
13.5740	 1.7580
13.6100	 1.6180
13.6460	 1.7250
13.6820	 1.6620
13.7180	 1.9170
13.7540	 1.7800
13.7910	 1.9680
13.8280	 1.7050
13.8650	 1.9190
13.9020	 1.8200
13.9390	 1.9450
13.9770	 1.5890
14.0150	 1.6990
14.0530	 1.4320
14.0910	 1.6910
14.1290	 1.6210
14.1680	 1.8800
14.2070	 1.5640
14.2460	 1.7620
14.2850	 1.4390
14.3240	 1.6440
14.3640	 1.3910
14.4040	 1.6400
14.4440	 1.3710
14.4840	 1.6130
14.5250	 1.2950
14.5660	 1.6430
14.6070	 1.3810
14.6480	 1.5880
14.6900	 1.1520
14.7310	 1.4510
14.7730	 1.2580
14.8150	 1.5990
14.8580	 1.1630
14.9010	 1.3770
14.9440	 0.9490
14.9870	 1.4130
15.0300	 1.1130
15.0740	 1.7070
15.1180	 1.3200
15.1620	 1.5450
15.2060	 1.1450
15.2510	 1.6510
15.2960	 1.3690
15.3410	 1.6040
15.3870	 1.0050
