Name: Quercus agrifolia 2
Type: vegetation
Class: Tree
Genus: Quercus
Species: agrifolia
Sample No.: VH079
Owner: UCSB
Wavelength Range: TIR
Origin: 34.7156; -120.0603; WGS84
Collection Date: 4/21/2013
Description: Samples were collected as part of the HyspIRI Airborne Campaign. 48 individual plants were sampled in three times in 2013 - spring  summer  and fall. The name of the sample includes a 1  2  or 3 which references a different individual of the species. Samples were taken to JPL and processed within 48 hours of collection. The same leaves were processed in the Nicolet and then measured using the ASD.
Measurement: Hemispherical reflectance
First Column: X
Second Column: Y
X Units: Wavelength (micrometers)
Y Units: Reflectance (percentage)
First X Value: 2.501
Last X Value: 15.387
Number of X Values: 1737
Additional Information: vegetation.tree.quercus.agrifolia.tir.vh079.ucsb.nicolet.ancillary.txt

 2.5010	10.4730
 2.5030	10.3610
 2.5040	10.4670
 2.5050	10.3420
 2.5060	10.2890
 2.5070	10.3250
 2.5090	10.3940
 2.5100	10.5690
 2.5110	10.5700
 2.5120	10.2940
 2.5140	10.2160
 2.5150	10.1540
 2.5160	10.1930
 2.5170	10.2580
 2.5180	10.3720
 2.5200	10.3000
 2.5210	10.3890
 2.5220	10.4230
 2.5230	10.3910
 2.5250	10.3690
 2.5260	10.3360
 2.5270	10.2740
 2.5280	10.4620
 2.5290	10.3950
 2.5310	10.2190
 2.5320	10.2000
 2.5330	10.2650
 2.5340	10.2290
 2.5360	10.3280
 2.5370	10.2230
 2.5380	 9.9550
 2.5390	 9.9780
 2.5410	10.2300
 2.5420	10.2350
 2.5430	10.2650
 2.5440	10.2940
 2.5460	10.2290
 2.5470	10.1280
 2.5480	10.1680
 2.5490	10.2640
 2.5510	10.3120
 2.5520	10.4240
 2.5530	10.4200
 2.5540	10.2930
 2.5560	10.3150
 2.5570	10.1970
 2.5580	10.3250
 2.5590	10.2840
 2.5610	10.2870
 2.5620	10.3610
 2.5630	10.4160
 2.5640	10.4390
 2.5660	10.5150
 2.5670	10.3650
 2.5680	10.3880
 2.5700	10.3320
 2.5710	10.1900
 2.5720	10.2420
 2.5730	10.3980
 2.5750	10.3500
 2.5760	10.4980
 2.5770	10.6120
 2.5790	10.6420
 2.5800	10.4500
 2.5810	10.4410
 2.5820	10.4300
 2.5840	10.3710
 2.5850	10.2020
 2.5860	10.2000
 2.5880	10.2020
 2.5890	10.3570
 2.5900	10.3600
 2.5910	10.4630
 2.5930	10.4520
 2.5940	10.4320
 2.5950	10.4120
 2.5970	10.4020
 2.5980	10.3240
 2.5990	10.2910
 2.6000	10.2760
 2.6020	10.3590
 2.6030	10.4090
 2.6040	10.3870
 2.6060	10.2410
 2.6070	10.1310
 2.6080	10.1640
 2.6100	10.1660
 2.6110	 9.9590
 2.6120	 9.8330
 2.6140	 9.9310
 2.6150	10.2110
 2.6160	10.1710
 2.6180	10.1370
 2.6190	10.1150
 2.6200	10.2220
 2.6220	10.1450
 2.6230	10.1270
 2.6240	10.0570
 2.6260	10.1270
 2.6270	10.0320
 2.6280	 9.8390
 2.6300	 9.8290
 2.6310	 9.8770
 2.6320	 9.7950
 2.6340	 9.8480
 2.6350	 9.8520
 2.6360	10.0040
 2.6380	 9.9070
 2.6390	 9.7270
 2.6400	 9.7500
 2.6420	 9.8300
 2.6430	 9.6870
 2.6440	 9.6260
 2.6460	 9.7900
 2.6470	 9.8330
 2.6480	 9.5520
 2.6500	 9.4220
 2.6510	 9.4750
 2.6520	 9.6290
 2.6540	 9.5210
 2.6550	 9.6090
 2.6560	 9.5290
 2.6580	 9.3200
 2.6590	 9.2190
 2.6610	 9.2800
 2.6620	 9.2980
 2.6630	 9.3480
 2.6650	 9.3150
 2.6660	 9.3380
 2.6670	 9.2700
 2.6690	 9.1670
 2.6700	 9.1530
 2.6720	 9.1110
 2.6730	 9.1080
 2.6740	 9.1040
 2.6760	 8.9850
 2.6770	 9.0060
 2.6780	 8.9830
 2.6800	 9.0990
 2.6810	 9.0340
 2.6830	 8.9000
 2.6840	 8.8600
 2.6850	 8.9100
 2.6870	 8.9630
 2.6880	 8.9280
 2.6900	 8.7900
 2.6910	 8.7750
 2.6920	 8.7120
 2.6940	 8.7170
 2.6950	 8.7520
 2.6970	 8.7630
 2.6980	 8.6640
 2.6990	 8.7350
 2.7010	 8.7660
 2.7020	 8.7930
 2.7040	 8.6480
 2.7050	 8.5740
 2.7060	 8.5820
 2.7080	 8.5730
 2.7090	 8.4800
 2.7110	 8.4620
 2.7120	 8.5030
 2.7130	 8.4280
 2.7150	 8.3440
 2.7160	 8.4050
 2.7180	 8.3470
 2.7190	 8.3970
 2.7210	 8.4810
 2.7220	 8.5030
 2.7230	 8.3490
 2.7250	 8.3170
 2.7260	 8.3030
 2.7280	 8.4180
 2.7290	 8.3560
 2.7310	 8.3210
 2.7320	 8.3180
 2.7330	 8.4160
 2.7350	 8.3150
 2.7360	 8.2200
 2.7380	 8.2330
 2.7390	 8.3380
 2.7410	 8.1360
 2.7420	 8.1160
 2.7440	 8.1380
 2.7450	 8.2660
 2.7470	 8.3550
 2.7480	 8.3220
 2.7490	 8.1240
 2.7510	 8.2840
 2.7520	 8.4180
 2.7540	 8.3910
 2.7550	 8.2340
 2.7570	 8.1990
 2.7580	 8.0790
 2.7600	 8.0240
 2.7610	 8.0570
 2.7630	 8.1600
 2.7640	 8.2710
 2.7660	 8.2760
 2.7670	 8.2030
 2.7680	 8.2380
 2.7700	 8.2440
 2.7710	 8.1260
 2.7730	 8.0200
 2.7740	 8.1900
 2.7760	 8.2730
 2.7770	 8.3090
 2.7790	 8.2890
 2.7800	 8.3620
 2.7820	 8.2580
 2.7830	 8.2460
 2.7850	 8.2300
 2.7860	 8.1170
 2.7880	 8.0210
 2.7890	 7.9920
 2.7910	 7.9910
 2.7920	 8.1300
 2.7940	 8.1860
 2.7950	 8.1760
 2.7970	 8.0630
 2.7980	 8.1370
 2.8000	 8.1120
 2.8010	 8.2190
 2.8030	 8.0900
 2.8040	 8.0600
 2.8060	 8.2330
 2.8070	 8.2870
 2.8090	 8.1700
 2.8110	 8.1630
 2.8120	 8.2200
 2.8140	 8.2640
 2.8150	 8.1350
 2.8170	 8.1700
 2.8180	 8.2150
 2.8200	 8.4010
 2.8210	 8.2860
 2.8230	 8.1040
 2.8240	 7.9930
 2.8260	 8.0910
 2.8270	 8.2160
 2.8290	 8.3590
 2.8300	 8.1140
 2.8320	 8.0010
 2.8340	 8.0880
 2.8350	 8.0810
 2.8370	 7.8800
 2.8380	 7.8970
 2.8400	 8.0570
 2.8410	 8.0330
 2.8430	 7.9390
 2.8440	 7.9700
 2.8460	 7.9630
 2.8480	 8.1200
 2.8490	 8.2490
 2.8510	 8.2900
 2.8520	 8.1220
 2.8540	 8.1330
 2.8550	 8.2030
 2.8570	 8.2610
 2.8590	 8.1580
 2.8600	 8.1310
 2.8620	 8.2030
 2.8630	 8.2800
 2.8650	 8.1850
 2.8660	 8.2720
 2.8680	 8.2040
 2.8700	 8.1120
 2.8710	 8.2440
 2.8730	 8.3900
 2.8740	 8.3120
 2.8760	 8.3020
 2.8780	 8.1680
 2.8790	 8.2650
 2.8810	 8.4160
 2.8820	 8.3900
 2.8840	 8.3300
 2.8860	 8.2340
 2.8870	 8.1330
 2.8890	 8.2150
 2.8900	 8.2370
 2.8920	 8.3570
 2.8940	 8.3360
 2.8950	 8.2210
 2.8970	 8.1810
 2.8980	 8.2220
 2.9000	 8.2270
 2.9020	 8.3200
 2.9030	 8.1940
 2.9050	 8.1620
 2.9070	 8.1350
 2.9080	 8.1760
 2.9100	 8.2090
 2.9120	 8.3680
 2.9130	 8.3150
 2.9150	 8.2170
 2.9160	 8.0950
 2.9180	 8.1110
 2.9200	 8.2550
 2.9210	 8.4440
 2.9230	 8.3080
 2.9250	 8.2240
 2.9260	 8.2910
 2.9280	 8.3800
 2.9300	 8.2010
 2.9310	 8.2850
 2.9330	 8.3440
 2.9350	 8.4120
 2.9360	 8.3450
 2.9380	 8.3560
 2.9400	 8.3290
 2.9410	 8.3550
 2.9430	 8.3070
 2.9450	 8.2880
 2.9460	 8.2380
 2.9480	 8.2620
 2.9500	 8.2350
 2.9510	 8.2730
 2.9530	 8.1950
 2.9550	 8.2330
 2.9560	 8.3160
 2.9580	 8.3930
 2.9600	 8.1990
 2.9610	 8.2540
 2.9630	 8.0000
 2.9650	 7.6920
 2.9660	 7.9650
 2.9680	 8.6560
 2.9700	 9.3370
 2.9720	 9.5490
 2.9730	 9.1770
 2.9750	 8.7710
 2.9770	 7.4980
 2.9780	 7.1690
 2.9800	 7.3490
 2.9820	 7.2100
 2.9840	 7.6230
 2.9850	 7.8570
 2.9870	 7.9840
 2.9890	 7.8300
 2.9900	 7.9770
 2.9920	 8.0950
 2.9940	 7.5140
 2.9960	 7.5450
 2.9970	 8.2220
 2.9990	 8.2690
 3.0010	 8.0810
 3.0030	 8.1300
 3.0040	 8.3580
 3.0060	 8.6010
 3.0080	 8.5730
 3.0100	 8.5190
 3.0110	 8.4610
 3.0130	 8.3770
 3.0150	 8.2440
 3.0170	 8.6290
 3.0180	 8.9330
 3.0200	 8.6170
 3.0220	 8.2220
 3.0240	 8.3320
 3.0250	 8.2240
 3.0270	 8.0220
 3.0290	 8.2170
 3.0310	 8.4450
 3.0320	 8.5320
 3.0340	 8.8090
 3.0360	 8.6010
 3.0380	 8.0330
 3.0400	 8.0400
 3.0410	 8.7810
 3.0430	 8.8630
 3.0450	 8.5450
 3.0470	 9.2520
 3.0480	 9.0180
 3.0500	 8.2990
 3.0520	 7.8790
 3.0540	 7.5160
 3.0560	 8.4020
 3.0570	 8.8540
 3.0590	 8.0930
 3.0610	 8.0250
 3.0630	 8.4410
 3.0650	 8.3800
 3.0660	 8.2740
 3.0680	 8.2850
 3.0700	 8.2180
 3.0720	 8.2390
 3.0740	 8.4700
 3.0760	 8.4970
 3.0770	 8.3630
 3.0790	 8.3110
 3.0810	 8.4370
 3.0830	 8.5980
 3.0850	 8.5180
 3.0870	 8.4170
 3.0880	 8.3870
 3.0900	 8.3240
 3.0920	 8.4210
 3.0940	 8.5340
 3.0960	 8.4900
 3.0980	 8.4010
 3.0990	 8.4350
 3.1010	 8.3930
 3.1030	 8.4150
 3.1050	 8.4290
 3.1070	 8.4380
 3.1090	 8.3480
 3.1110	 8.2550
 3.1120	 8.1160
 3.1140	 8.1210
 3.1160	 8.1530
 3.1180	 8.2390
 3.1200	 8.3050
 3.1220	 8.4000
 3.1240	 8.3950
 3.1260	 8.4120
 3.1270	 8.3020
 3.1290	 8.1710
 3.1310	 8.1530
 3.1330	 8.3090
 3.1350	 8.3950
 3.1370	 8.4210
 3.1390	 8.3870
 3.1410	 8.6610
 3.1430	 8.7480
 3.1450	 8.7350
 3.1460	 8.4100
 3.1480	 8.2920
 3.1500	 8.3210
 3.1520	 8.3810
 3.1540	 8.4530
 3.1560	 8.5470
 3.1580	 8.6230
 3.1600	 8.5370
 3.1620	 8.0330
 3.1640	 8.0220
 3.1660	 8.5230
 3.1680	 8.5940
 3.1700	 8.4120
 3.1710	 8.6120
 3.1730	 8.6250
 3.1750	 8.5020
 3.1770	 8.3360
 3.1790	 8.4550
 3.1810	 8.1720
 3.1830	 8.3060
 3.1850	 8.6720
 3.1870	 8.8020
 3.1890	 8.6690
 3.1910	 8.2990
 3.1930	 8.1090
 3.1950	 8.2520
 3.1970	 8.3230
 3.1990	 8.3590
 3.2010	 8.2260
 3.2030	 8.1810
 3.2050	 8.1720
 3.2070	 8.2260
 3.2090	 8.2850
 3.2110	 8.2570
 3.2130	 8.1410
 3.2150	 8.1350
 3.2170	 8.1180
 3.2190	 8.1870
 3.2210	 8.2290
 3.2230	 8.2370
 3.2250	 8.2540
 3.2270	 8.3470
 3.2290	 8.2830
 3.2310	 8.1120
 3.2330	 8.0300
 3.2350	 8.2370
 3.2370	 8.2560
 3.2390	 8.1670
 3.2410	 8.1870
 3.2430	 8.4100
 3.2450	 8.2630
 3.2470	 8.1400
 3.2490	 8.1760
 3.2510	 8.2970
 3.2530	 8.3070
 3.2550	 8.2170
 3.2570	 7.9470
 3.2590	 8.0500
 3.2610	 8.0950
 3.2630	 8.1250
 3.2650	 8.2110
 3.2670	 8.2290
 3.2690	 8.2340
 3.2720	 8.1640
 3.2740	 8.0170
 3.2760	 8.0760
 3.2780	 8.1220
 3.2800	 8.1090
 3.2820	 8.0330
 3.2840	 8.1340
 3.2860	 8.1890
 3.2880	 8.2360
 3.2900	 8.2810
 3.2920	 8.3590
 3.2940	 8.3130
 3.2960	 8.2310
 3.2990	 8.1940
 3.3010	 8.1760
 3.3030	 8.1190
 3.3050	 8.1370
 3.3070	 7.9550
 3.3090	 7.9810
 3.3110	 7.9990
 3.3130	 8.0560
 3.3150	 7.9810
 3.3180	 7.8510
 3.3200	 7.7800
 3.3220	 7.8890
 3.3240	 7.9160
 3.3260	 8.0060
 3.3280	 8.0490
 3.3300	 7.9820
 3.3330	 7.8780
 3.3350	 7.8740
 3.3370	 7.7880
 3.3390	 7.8670
 3.3410	 8.0970
 3.3430	 7.9720
 3.3450	 7.8060
 3.3480	 7.8590
 3.3500	 7.7920
 3.3520	 7.8410
 3.3540	 7.9300
 3.3560	 7.7800
 3.3580	 7.6270
 3.3610	 7.7660
 3.3630	 7.7450
 3.3650	 7.5990
 3.3670	 7.5250
 3.3690	 7.5580
 3.3720	 7.5830
 3.3740	 7.4530
 3.3760	 7.2990
 3.3780	 7.5180
 3.3800	 7.6340
 3.3830	 7.4600
 3.3850	 7.4430
 3.3870	 7.5850
 3.3890	 7.4960
 3.3910	 7.4150
 3.3940	 7.3410
 3.3960	 7.3160
 3.3980	 7.2660
 3.4000	 7.1410
 3.4020	 6.9490
 3.4050	 7.0150
 3.4070	 6.9720
 3.4090	 6.8630
 3.4110	 6.6860
 3.4140	 6.6710
 3.4160	 6.8520
 3.4180	 7.1240
 3.4200	 7.5280
 3.4230	 8.3990
 3.4250	 9.5580
 3.4270	10.7280
 3.4290	11.5710
 3.4320	11.7560
 3.4340	11.3120
 3.4360	10.6510
 3.4390	10.1160
 3.4410	 9.9050
 3.4430	 9.6170
 3.4450	 9.5080
 3.4480	 9.5520
 3.4500	 9.4950
 3.4520	 9.3450
 3.4550	 9.3130
 3.4570	 9.2470
 3.4590	 9.2460
 3.4620	 9.2730
 3.4640	 9.3100
 3.4660	 9.2880
 3.4680	 9.2220
 3.4710	 9.1370
 3.4730	 9.1060
 3.4750	 8.9640
 3.4780	 8.7900
 3.4800	 8.6840
 3.4820	 8.7600
 3.4850	 8.6920
 3.4870	 8.6060
 3.4890	 8.5120
 3.4920	 8.4040
 3.4940	 8.2070
 3.4970	 8.0660
 3.4990	 7.8630
 3.5010	 7.6520
 3.5040	 7.6350
 3.5060	 8.0670
 3.5080	 9.3390
 3.5110	10.8400
 3.5130	11.3020
 3.5160	11.1520
 3.5180	10.7360
 3.5200	10.3800
 3.5230	10.2150
 3.5250	 9.9850
 3.5270	 9.7310
 3.5300	 9.7480
 3.5320	 9.5620
 3.5350	 9.4090
 3.5370	 9.3560
 3.5400	 9.3150
 3.5420	 9.3380
 3.5440	 9.4340
 3.5470	 9.4030
 3.5490	 9.3340
 3.5520	 9.3110
 3.5540	 9.3050
 3.5570	 9.2120
 3.5590	 9.1920
 3.5610	 9.2000
 3.5640	 9.1950
 3.5660	 9.2790
 3.5690	 9.2450
 3.5710	 9.0500
 3.5740	 9.0640
 3.5760	 9.1800
 3.5790	 9.1560
 3.5810	 9.1230
 3.5840	 9.1620
 3.5860	 9.1510
 3.5890	 9.1190
 3.5910	 9.0670
 3.5930	 9.0860
 3.5960	 9.0210
 3.5980	 8.9950
 3.6010	 8.9250
 3.6030	 8.8480
 3.6060	 8.8170
 3.6080	 8.8680
 3.6110	 9.0010
 3.6140	 9.0830
 3.6160	 8.9660
 3.6190	 8.9410
 3.6210	 9.0430
 3.6240	 9.0330
 3.6260	 8.9980
 3.6290	 8.9850
 3.6310	 8.9690
 3.6340	 9.0450
 3.6360	 8.9280
 3.6390	 8.8790
 3.6410	 8.7860
 3.6440	 8.7920
 3.6470	 8.9180
 3.6490	 8.9490
 3.6520	 8.8880
 3.6540	 8.8600
 3.6570	 8.8280
 3.6590	 8.8320
 3.6620	 8.8100
 3.6650	 8.7530
 3.6670	 8.7180
 3.6700	 8.8680
 3.6720	 8.9000
 3.6750	 8.8820
 3.6780	 8.8970
 3.6800	 8.8570
 3.6830	 8.8680
 3.6850	 8.9660
 3.6880	 8.8590
 3.6910	 8.7900
 3.6930	 8.8330
 3.6960	 8.9080
 3.6990	 8.8200
 3.7010	 8.7920
 3.7040	 8.8160
 3.7060	 8.7860
 3.7090	 8.7800
 3.7120	 8.8640
 3.7140	 8.9020
 3.7170	 8.7950
 3.7200	 8.7340
 3.7220	 8.7520
 3.7250	 8.7960
 3.7280	 8.8050
 3.7300	 8.7220
 3.7330	 8.7730
 3.7360	 8.8020
 3.7390	 8.8100
 3.7410	 8.8350
 3.7440	 8.8290
 3.7470	 8.7760
 3.7490	 8.8440
 3.7520	 8.8370
 3.7550	 8.8280
 3.7580	 8.8030
 3.7600	 8.7420
 3.7630	 8.7430
 3.7660	 8.8850
 3.7680	 8.8690
 3.7710	 8.8090
 3.7740	 8.8440
 3.7770	 8.8630
 3.7790	 8.8040
 3.7820	 8.8330
 3.7850	 8.7930
 3.7880	 8.8580
 3.7900	 8.8690
 3.7930	 8.7980
 3.7960	 8.6840
 3.7990	 8.7070
 3.8020	 8.7200
 3.8040	 8.8030
 3.8070	 8.7480
 3.8100	 8.7560
 3.8130	 8.8400
 3.8160	 8.8870
 3.8180	 8.8270
 3.8210	 8.7840
 3.8240	 8.8440
 3.8270	 8.8510
 3.8300	 8.7790
 3.8330	 8.7870
 3.8350	 8.8320
 3.8380	 8.7990
 3.8410	 8.7290
 3.8440	 8.8090
 3.8470	 8.8130
 3.8500	 8.8220
 3.8520	 8.7620
 3.8550	 8.7040
 3.8580	 8.7910
 3.8610	 8.7540
 3.8640	 8.7190
 3.8670	 8.8160
 3.8700	 8.8650
 3.8730	 8.8900
 3.8750	 8.7870
 3.8780	 8.7310
 3.8810	 8.7730
 3.8840	 8.8680
 3.8870	 8.8210
 3.8900	 8.7810
 3.8930	 8.7680
 3.8960	 8.7760
 3.8990	 8.7590
 3.9020	 8.8230
 3.9050	 8.8440
 3.9080	 8.8200
 3.9110	 8.7350
 3.9140	 8.7010
 3.9160	 8.7710
 3.9190	 8.8510
 3.9220	 8.9010
 3.9250	 8.8030
 3.9280	 8.7510
 3.9310	 8.9020
 3.9340	 8.8870
 3.9370	 8.8170
 3.9400	 8.7050
 3.9430	 8.7090
 3.9460	 8.7900
 3.9490	 8.8970
 3.9520	 8.9330
 3.9550	 8.8150
 3.9580	 8.7400
 3.9610	 8.7970
 3.9640	 8.7840
 3.9670	 8.8420
 3.9700	 8.8470
 3.9730	 8.8540
 3.9770	 8.7580
 3.9800	 8.7250
 3.9830	 8.7750
 3.9860	 8.8430
 3.9890	 8.8850
 3.9920	 8.8550
 3.9950	 8.7870
 3.9980	 8.7980
 4.0010	 8.8150
 4.0040	 8.8460
 4.0070	 8.8220
 4.0100	 8.7900
 4.0130	 8.8160
 4.0170	 8.9090
 4.0200	 8.8440
 4.0230	 8.6900
 4.0260	 8.7440
 4.0290	 8.8160
 4.0320	 8.8190
 4.0350	 8.7990
 4.0380	 8.7570
 4.0420	 8.8290
 4.0450	 8.8620
 4.0480	 8.8130
 4.0510	 8.7090
 4.0540	 8.7220
 4.0570	 8.8280
 4.0610	 8.9340
 4.0640	 8.9530
 4.0670	 8.9510
 4.0700	 8.9190
 4.0730	 8.8710
 4.0770	 8.8260
 4.0800	 8.8370
 4.0830	 8.8050
 4.0860	 8.7360
 4.0890	 8.7130
 4.0930	 8.7960
 4.0960	 8.8990
 4.0990	 8.9020
 4.1020	 8.8320
 4.1060	 8.8960
 4.1090	 8.8620
 4.1120	 8.8340
 4.1150	 8.8130
 4.1190	 8.7450
 4.1220	 8.7540
 4.1250	 8.7680
 4.1280	 8.6840
 4.1320	 8.7130
 4.1350	 8.7500
 4.1380	 8.7180
 4.1420	 8.7730
 4.1450	 8.9180
 4.1480	 8.8000
 4.1520	 8.7050
 4.1550	 8.7530
 4.1580	 8.7720
 4.1620	 8.8270
 4.1650	 8.8500
 4.1680	 8.7510
 4.1720	 8.6780
 4.1750	 8.7500
 4.1780	 8.7840
 4.1820	 8.6930
 4.1850	 8.6640
 4.1890	 8.6590
 4.1920	 8.7310
 4.1950	 8.8180
 4.1990	 8.8470
 4.2020	 8.8300
 4.2060	 8.8160
 4.2090	 8.6520
 4.2120	 8.5290
 4.2160	 8.5100
 4.2190	 8.3640
 4.2230	 8.1570
 4.2260	 8.1200
 4.2300	 8.1110
 4.2330	 8.1640
 4.2360	 8.0550
 4.2400	 8.1560
 4.2430	 8.2880
 4.2470	 8.1090
 4.2500	 8.0980
 4.2540	 8.2540
 4.2570	 8.3840
 4.2610	 8.4450
 4.2640	 8.3110
 4.2680	 8.4560
 4.2710	 8.4550
 4.2750	 8.3890
 4.2780	 8.3170
 4.2820	 8.2860
 4.2850	 8.4000
 4.2890	 8.4350
 4.2930	 8.2740
 4.2960	 8.3710
 4.3000	 8.4920
 4.3030	 8.5110
 4.3070	 8.3620
 4.3100	 8.3510
 4.3140	 8.3100
 4.3180	 8.3870
 4.3210	 8.5150
 4.3250	 8.3770
 4.3280	 8.2850
 4.3320	 8.3660
 4.3360	 8.3750
 4.3390	 8.4600
 4.3430	 8.5510
 4.3470	 8.5580
 4.3500	 8.5130
 4.3540	 8.5240
 4.3570	 8.4920
 4.3610	 8.4480
 4.3650	 8.5700
 4.3680	 8.6110
 4.3720	 8.5510
 4.3760	 8.5420
 4.3800	 8.5410
 4.3830	 8.4790
 4.3870	 8.4860
 4.3910	 8.4650
 4.3940	 8.3950
 4.3980	 8.5060
 4.4020	 8.5780
 4.4060	 8.5830
 4.4090	 8.5930
 4.4130	 8.5520
 4.4170	 8.4940
 4.4210	 8.4790
 4.4240	 8.5320
 4.4280	 8.5200
 4.4320	 8.4080
 4.4360	 8.4270
 4.4400	 8.5400
 4.4430	 8.5490
 4.4470	 8.5040
 4.4510	 8.4890
 4.4550	 8.5000
 4.4590	 8.5130
 4.4620	 8.4770
 4.4660	 8.4420
 4.4700	 8.4780
 4.4740	 8.4420
 4.4780	 8.4060
 4.4820	 8.3880
 4.4860	 8.3360
 4.4900	 8.4120
 4.4930	 8.4900
 4.4970	 8.4330
 4.5010	 8.3960
 4.5050	 8.4330
 4.5090	 8.3640
 4.5130	 8.4100
 4.5170	 8.5280
 4.5210	 8.5030
 4.5250	 8.3960
 4.5290	 8.3600
 4.5330	 8.4070
 4.5370	 8.5010
 4.5410	 8.5080
 4.5450	 8.4580
 4.5490	 8.4040
 4.5530	 8.3680
 4.5570	 8.3560
 4.5610	 8.4080
 4.5650	 8.4670
 4.5690	 8.5040
 4.5730	 8.5400
 4.5770	 8.4920
 4.5810	 8.4540
 4.5850	 8.4760
 4.5890	 8.4950
 4.5930	 8.4620
 4.5970	 8.4210
 4.6010	 8.4070
 4.6050	 8.3230
 4.6090	 8.3860
 4.6130	 8.4710
 4.6170	 8.4580
 4.6220	 8.3760
 4.6260	 8.3080
 4.6300	 8.3790
 4.6340	 8.3630
 4.6380	 8.3410
 4.6420	 8.4230
 4.6460	 8.4560
 4.6510	 8.4240
 4.6550	 8.4030
 4.6590	 8.3730
 4.6630	 8.3650
 4.6670	 8.3860
 4.6720	 8.3990
 4.6760	 8.4250
 4.6800	 8.4310
 4.6840	 8.3430
 4.6880	 8.3750
 4.6930	 8.4060
 4.6970	 8.4180
 4.7010	 8.3780
 4.7050	 8.3230
 4.7100	 8.3660
 4.7140	 8.3690
 4.7180	 8.3290
 4.7230	 8.2430
 4.7270	 8.2290
 4.7310	 8.3000
 4.7360	 8.3080
 4.7400	 8.2680
 4.7440	 8.2600
 4.7490	 8.2920
 4.7530	 8.2600
 4.7570	 8.2750
 4.7620	 8.2600
 4.7660	 8.2720
 4.7700	 8.2980
 4.7750	 8.2520
 4.7790	 8.2440
 4.7840	 8.2950
 4.7880	 8.4210
 4.7920	 8.5110
 4.7970	 8.3760
 4.8010	 8.3210
 4.8060	 8.3040
 4.8100	 8.2720
 4.8150	 8.1750
 4.8190	 8.1520
 4.8240	 8.2190
 4.8280	 8.1890
 4.8330	 8.1490
 4.8370	 8.1690
 4.8420	 8.1600
 4.8460	 8.1790
 4.8510	 8.2330
 4.8550	 8.2490
 4.8600	 8.1940
 4.8640	 8.1420
 4.8690	 8.1730
 4.8730	 8.2300
 4.8780	 8.2880
 4.8830	 8.2230
 4.8870	 8.1330
 4.8920	 8.1260
 4.8960	 8.1780
 4.9010	 8.1770
 4.9060	 8.1460
 4.9100	 8.1530
 4.9150	 8.0990
 4.9200	 8.1100
 4.9240	 8.1190
 4.9290	 8.1020
 4.9340	 8.1650
 4.9380	 8.2360
 4.9430	 8.2130
 4.9480	 8.0920
 4.9530	 8.0980
 4.9570	 8.1500
 4.9620	 8.1260
 4.9670	 8.1570
 4.9720	 8.1960
 4.9760	 8.1500
 4.9810	 8.0270
 4.9860	 8.0760
 4.9910	 8.1280
 4.9960	 8.1370
 5.0000	 8.1260
 5.0050	 8.1170
 5.0100	 8.0350
 5.0150	 7.9390
 5.0200	 7.9230
 5.0250	 8.0060
 5.0290	 8.0570
 5.0340	 8.0820
 5.0390	 8.1350
 5.0440	 8.1880
 5.0490	 8.1360
 5.0540	 8.1000
 5.0590	 8.0820
 5.0640	 8.0790
 5.0690	 8.0940
 5.0740	 8.0970
 5.0790	 8.0260
 5.0840	 8.0150
 5.0890	 8.0790
 5.0940	 8.0600
 5.0990	 8.0370
 5.1040	 8.0410
 5.1090	 8.0160
 5.1140	 8.0910
 5.1190	 8.0590
 5.1240	 7.9480
 5.1290	 7.9720
 5.1340	 8.0530
 5.1390	 8.0300
 5.1440	 8.0810
 5.1490	 8.0490
 5.1540	 8.0240
 5.1600	 7.9810
 5.1650	 8.0120
 5.1700	 8.0630
 5.1750	 8.0830
 5.1800	 8.1030
 5.1850	 8.0910
 5.1910	 8.0400
 5.1960	 7.9800
 5.2010	 7.8990
 5.2060	 7.9430
 5.2110	 7.9450
 5.2170	 7.9540
 5.2220	 7.9470
 5.2270	 8.0500
 5.2320	 8.0370
 5.2380	 7.9610
 5.2430	 7.9930
 5.2480	 8.0250
 5.2540	 8.0400
 5.2590	 8.0700
 5.2640	 8.0210
 5.2700	 7.9960
 5.2750	 7.9960
 5.2800	 8.0230
 5.2860	 7.9580
 5.2910	 7.9630
 5.2970	 7.9200
 5.3020	 7.9200
 5.3070	 7.8880
 5.3130	 7.9470
 5.3180	 7.9610
 5.3240	 7.9150
 5.3290	 7.8240
 5.3350	 7.8160
 5.3400	 7.8460
 5.3460	 7.9100
 5.3510	 7.9230
 5.3570	 7.8760
 5.3620	 7.8350
 5.3680	 7.8840
 5.3730	 7.8260
 5.3790	 7.9020
 5.3850	 7.9040
 5.3900	 7.8180
 5.3960	 7.7640
 5.4010	 7.8010
 5.4070	 7.7620
 5.4130	 7.8060
 5.4180	 7.8430
 5.4240	 7.8650
 5.4300	 7.8020
 5.4350	 7.7780
 5.4410	 7.7830
 5.4470	 7.8300
 5.4530	 7.7840
 5.4580	 7.7700
 5.4640	 7.7160
 5.4700	 7.7540
 5.4760	 7.8240
 5.4810	 7.8470
 5.4870	 7.7300
 5.4930	 7.7410
 5.4990	 7.7610
 5.5050	 7.7570
 5.5110	 7.7680
 5.5160	 7.7500
 5.5220	 7.7340
 5.5280	 7.7600
 5.5340	 7.7470
 5.5400	 7.7470
 5.5460	 7.6790
 5.5520	 7.7410
 5.5580	 7.7920
 5.5640	 7.7290
 5.5700	 7.6440
 5.5760	 7.6730
 5.5820	 7.6780
 5.5880	 7.6980
 5.5940	 7.6410
 5.6000	 7.6000
 5.6060	 7.5320
 5.6120	 7.5540
 5.6180	 7.5620
 5.6240	 7.5720
 5.6300	 7.5290
 5.6360	 7.5480
 5.6420	 7.5680
 5.6490	 7.6030
 5.6550	 7.5410
 5.6610	 7.4940
 5.6670	 7.4160
 5.6730	 7.4250
 5.6800	 7.4430
 5.6860	 7.5170
 5.6920	 7.4950
 5.6980	 7.3990
 5.7040	 7.3260
 5.7110	 7.3230
 5.7170	 7.2820
 5.7230	 7.3620
 5.7300	 7.3640
 5.7360	 7.3630
 5.7420	 7.2930
 5.7490	 7.3150
 5.7550	 7.4560
 5.7620	 7.5740
 5.7680	 7.6250
 5.7740	 7.8230
 5.7810	 7.8640
 5.7870	 7.8870
 5.7940	 7.8200
 5.8000	 7.8620
 5.8070	 7.9310
 5.8130	 7.9410
 5.8200	 7.9100
 5.8260	 7.9710
 5.8330	 7.9680
 5.8390	 8.0740
 5.8460	 8.1090
 5.8530	 8.1010
 5.8590	 8.0580
 5.8660	 8.1280
 5.8720	 8.1270
 5.8790	 8.1480
 5.8860	 8.1160
 5.8920	 8.1660
 5.8990	 8.1830
 5.9060	 8.2280
 5.9130	 8.2150
 5.9190	 8.3500
 5.9260	 8.3360
 5.9330	 8.1820
 5.9400	 8.1350
 5.9470	 8.2390
 5.9530	 8.2290
 5.9600	 8.2360
 5.9670	 8.1880
 5.9740	 8.1970
 5.9810	 8.1580
 5.9880	 8.1120
 5.9950	 8.1020
 6.0020	 8.1210
 6.0090	 8.0250
 6.0160	 8.0370
 6.0230	 7.9290
 6.0300	 7.9780
 6.0370	 8.1080
 6.0440	 8.2000
 6.0510	 8.1150
 6.0580	 8.0740
 6.0650	 8.0130
 6.0720	 7.8180
 6.0790	 7.8060
 6.0860	 7.9900
 6.0930	 8.0700
 6.1000	 7.9920
 6.1080	 7.8740
 6.1150	 7.9920
 6.1220	 8.0200
 6.1290	 8.0180
 6.1370	 7.9820
 6.1440	 7.9540
 6.1510	 7.8050
 6.1580	 7.7660
 6.1660	 7.6980
 6.1730	 7.7080
 6.1800	 7.7040
 6.1880	 7.6620
 6.1950	 7.5870
 6.2030	 7.6990
 6.2100	 7.7150
 6.2170	 7.8370
 6.2250	 7.7950
 6.2320	 7.8550
 6.2400	 7.8370
 6.2470	 7.8130
 6.2550	 7.7420
 6.2630	 7.7380
 6.2700	 7.7580
 6.2780	 7.8230
 6.2850	 7.7980
 6.2930	 7.8290
 6.3010	 7.8450
 6.3080	 7.9300
 6.3160	 7.8460
 6.3240	 7.9600
 6.3310	 7.8670
 6.3390	 7.8390
 6.3470	 7.7790
 6.3550	 7.7440
 6.3620	 7.7000
 6.3700	 7.7810
 6.3780	 7.7100
 6.3860	 7.6000
 6.3940	 7.5740
 6.4020	 7.7000
 6.4100	 7.6440
 6.4180	 7.6720
 6.4260	 7.6850
 6.4330	 7.6730
 6.4410	 7.5860
 6.4490	 7.7280
 6.4580	 7.7210
 6.4660	 7.7490
 6.4740	 7.6700
 6.4820	 7.6790
 6.4900	 7.6560
 6.4980	 7.6780
 6.5060	 7.6470
 6.5140	 7.6250
 6.5230	 7.5940
 6.5310	 7.6740
 6.5390	 7.6710
 6.5470	 7.7650
 6.5550	 7.6350
 6.5640	 7.5480
 6.5720	 7.5520
 6.5800	 7.6090
 6.5890	 7.5340
 6.5970	 7.6620
 6.6060	 7.6620
 6.6140	 7.6240
 6.6220	 7.5560
 6.6310	 7.5600
 6.6390	 7.5620
 6.6480	 7.6180
 6.6560	 7.5870
 6.6650	 7.5720
 6.6740	 7.5070
 6.6820	 7.5260
 6.6910	 7.5500
 6.6990	 7.6540
 6.7080	 7.5100
 6.7170	 7.4380
 6.7260	 7.4120
 6.7340	 7.4890
 6.7430	 7.3500
 6.7520	 7.2110
 6.7610	 7.0070
 6.7690	 6.8490
 6.7780	 6.8390
 6.7870	 7.4940
 6.7960	 7.9740
 6.8050	 8.0030
 6.8140	 7.7350
 6.8230	 7.6610
 6.8320	 8.0060
 6.8410	 8.5450
 6.8500	 8.5350
 6.8590	 8.4100
 6.8680	 8.1820
 6.8770	 8.0460
 6.8860	 8.0220
 6.8950	 8.1220
 6.9050	 8.0630
 6.9140	 8.1260
 6.9230	 8.0720
 6.9320	 8.0140
 6.9420	 7.9420
 6.9510	 7.9880
 6.9600	 7.9590
 6.9700	 8.0280
 6.9790	 7.9810
 6.9880	 7.9600
 6.9980	 7.8820
 7.0070	 8.0000
 7.0170	 7.9680
 7.0260	 7.9290
 7.0360	 7.9400
 7.0450	 8.0750
 7.0550	 7.9920
 7.0650	 7.9980
 7.0740	 7.9050
 7.0840	 7.9490
 7.0940	 7.9850
 7.1030	 8.0040
 7.1130	 7.9780
 7.1230	 8.1010
 7.1330	 8.0130
 7.1420	 8.0490
 7.1520	 7.9530
 7.1620	 7.9060
 7.1720	 7.7000
 7.1820	 7.7480
 7.1920	 7.7970
 7.2020	 7.9450
 7.2120	 7.9200
 7.2220	 7.9520
 7.2320	 7.8670
 7.2420	 7.8870
 7.2520	 7.8560
 7.2620	 7.9110
 7.2730	 7.8290
 7.2830	 7.9150
 7.2930	 7.8970
 7.3030	 7.9540
 7.3140	 7.7860
 7.3240	 7.7140
 7.3340	 7.7220
 7.3450	 7.8520
 7.3550	 7.7880
 7.3660	 7.7680
 7.3760	 7.7840
 7.3870	 7.9550
 7.3970	 7.8970
 7.4080	 7.8200
 7.4180	 7.7210
 7.4290	 7.7390
 7.4400	 7.7220
 7.4500	 7.7600
 7.4610	 7.6580
 7.4720	 7.7470
 7.4830	 7.6830
 7.4930	 7.7270
 7.5040	 7.7600
 7.5150	 7.7960
 7.5260	 7.6760
 7.5370	 7.8990
 7.5480	 7.8560
 7.5590	 7.6970
 7.5700	 7.5260
 7.5810	 7.5810
 7.5920	 7.4880
 7.6030	 7.5020
 7.6140	 7.4490
 7.6260	 7.4620
 7.6370	 7.5310
 7.6480	 7.8050
 7.6590	 7.7800
 7.6710	 7.8080
 7.6820	 7.7320
 7.6930	 7.7800
 7.7050	 7.6650
 7.7160	 7.6860
 7.7280	 7.6170
 7.7390	 7.6800
 7.7510	 7.7580
 7.7630	 7.8000
 7.7740	 7.6030
 7.7860	 7.6420
 7.7980	 7.7220
 7.8090	 7.8880
 7.8210	 7.7360
 7.8330	 7.7190
 7.8450	 7.7070
 7.8570	 7.7220
 7.8690	 7.6830
 7.8810	 7.7910
 7.8930	 7.7580
 7.9050	 7.8230
 7.9170	 7.7440
 7.9290	 7.7760
 7.9410	 7.6100
 7.9530	 7.6760
 7.9650	 7.7040
 7.9780	 7.8550
 7.9900	 7.7410
 8.0020	 7.7270
 8.0150	 7.7440
 8.0270	 7.8800
 8.0390	 7.8400
 8.0520	 7.9180
 8.0640	 7.8850
 8.0770	 7.8480
 8.0900	 7.6490
 8.1020	 7.8700
 8.1150	 7.8040
 8.1280	 7.7860
 8.1400	 7.7780
 8.1530	 7.9050
 8.1660	 7.7470
 8.1790	 7.8700
 8.1920	 7.8950
 8.2050	 8.0390
 8.2180	 7.9900
 8.2310	 8.0350
 8.2440	 7.8690
 8.2570	 8.0110
 8.2700	 8.0330
 8.2830	 8.2520
 8.2970	 8.2290
 8.3100	 8.3230
 8.3230	 8.2350
 8.3370	 8.2470
 8.3500	 8.2140
 8.3640	 8.3380
 8.3770	 8.2450
 8.3910	 8.2840
 8.4040	 8.1340
 8.4180	 8.2290
 8.4320	 8.1730
 8.4450	 8.2940
 8.4590	 8.1790
 8.4730	 8.1770
 8.4870	 8.0200
 8.5010	 8.1750
 8.5150	 8.3020
 8.5290	 8.5370
 8.5430	 8.3880
 8.5570	 8.3510
 8.5710	 8.3410
 8.5850	 8.5230
 8.5990	 8.4570
 8.6140	 8.4920
 8.6280	 8.3160
 8.6420	 8.3320
 8.6570	 8.1590
 8.6710	 8.2540
 8.6860	 8.2200
 8.7000	 8.4700
 8.7150	 8.3420
 8.7300	 8.3140
 8.7440	 8.2890
 8.7590	 8.4300
 8.7740	 8.2820
 8.7890	 8.2840
 8.8040	 8.2360
 8.8190	 8.4740
 8.8340	 8.3250
 8.8490	 8.4330
 8.8640	 8.3200
 8.8790	 8.3840
 8.8940	 8.4590
 8.9100	 8.6780
 8.9250	 8.5990
 8.9400	 8.5490
 8.9560	 8.3240
 8.9710	 8.4960
 8.9870	 8.4430
 9.0020	 8.5740
 9.0180	 8.4800
 9.0340	 8.4830
 9.0500	 8.4360
 9.0650	 8.7080
 9.0810	 8.7350
 9.0970	 8.8860
 9.1130	 8.7080
 9.1290	 8.6170
 9.1450	 8.4740
 9.1610	 8.6750
 9.1780	 8.6190
 9.1940	 8.7330
 9.2100	 8.6270
 9.2270	 8.6800
 9.2430	 8.4830
 9.2600	 8.6460
 9.2760	 8.4700
 9.2930	 8.4310
 9.3090	 8.5330
 9.3260	 8.9370
 9.3430	 8.7800
 9.3600	 8.6390
 9.3770	 8.4630
 9.3940	 8.5490
 9.4110	 8.6040
 9.4280	 8.8310
 9.4450	 8.6680
 9.4620	 8.7640
 9.4800	 8.6830
 9.4970	 8.8910
 9.5140	 8.9650
 9.5320	 9.1060
 9.5500	 9.0370
 9.5670	 9.1200
 9.5850	 9.0740
 9.6030	 9.1920
 9.6200	 8.9960
 9.6380	 9.0660
 9.6560	 8.9470
 9.6740	 8.9530
 9.6920	 8.8040
 9.7100	 9.1130
 9.7290	 9.1680
 9.7470	 9.2620
 9.7650	 9.1200
 9.7840	 9.2140
 9.8020	 9.1310
 9.8210	 9.1890
 9.8390	 8.9790
 9.8580	 9.2710
 9.8770	 9.1340
 9.8960	 9.0450
 9.9150	 8.9680
 9.9340	 9.1670
 9.9530	 8.9380
 9.9720	 8.8740
 9.9910	 8.7700
10.0100	 8.9120
10.0300	 8.8730
10.0490	 8.9940
10.0690	 8.8010
10.0880	 8.7890
10.1080	 8.6410
10.1280	 8.7580
10.1480	 8.7620
10.1670	 8.8640
10.1870	 8.6610
10.2070	 8.6960
10.2280	 8.4310
10.2480	 8.4570
10.2680	 8.2990
10.2890	 8.3820
10.3090	 8.3100
10.3300	 8.3440
10.3500	 8.1890
10.3710	 8.3720
10.3920	 8.2220
10.4120	 8.3880
10.4330	 8.3340
10.4540	 8.3820
10.4760	 8.1020
10.4970	 8.2820
10.5180	 8.1180
10.5390	 8.2880
10.5610	 8.1650
10.5820	 8.2550
10.6040	 8.1740
10.6260	 8.1920
10.6480	 8.0770
10.6700	 8.2710
10.6920	 8.0450
10.7140	 8.1870
10.7360	 8.1710
10.7580	 8.4170
10.7800	 8.2080
10.8030	 8.2550
10.8250	 8.0410
10.8480	 8.1330
10.8710	 7.9830
10.8940	 8.1370
10.9170	 8.0520
10.9400	 8.1810
10.9630	 8.0290
10.9860	 8.2090
11.0090	 8.1170
11.0330	 8.1360
11.0560	 7.9260
11.0800	 8.0850
11.1040	 7.8960
11.1270	 8.0510
11.1510	 7.9790
11.1750	 8.2420
11.2000	 8.1310
11.2240	 8.1240
11.2480	 7.9070
11.2730	 8.0410
11.2970	 7.4780
11.3220	 7.5400
11.3470	 7.7310
11.3720	 8.0550
11.3970	 7.8040
11.4220	 7.8950
11.4470	 7.8470
11.4720	 8.0560
11.4980	 8.0300
11.5230	 8.2470
11.5490	 7.9510
11.5750	 7.8450
11.6000	 7.7390
11.6260	 8.1170
11.6530	 7.8990
11.6790	 7.9780
11.7050	 7.7730
11.7320	 8.0480
11.7580	 8.0310
11.7850	 8.0400
11.8120	 7.9140
11.8390	 8.1380
11.8660	 8.1050
11.8930	 8.2540
11.9200	 8.0100
11.9480	 8.0780
11.9760	 7.8800
12.0030	 8.1500
12.0310	 8.0610
12.0590	 8.0590
12.0870	 7.7900
12.1150	 7.9070
12.1440	 7.7500
12.1720	 7.8160
12.2010	 7.7900
12.2300	 8.1920
12.2590	 8.0280
12.2880	 8.0560
12.3170	 7.8150
12.3460	 7.9910
12.3760	 7.6490
12.4050	 7.8740
12.4350	 7.6940
12.4650	 7.8090
12.4950	 7.9010
12.5250	 8.2890
12.5550	 8.1260
12.5860	 8.0500
12.6170	 7.8600
12.6470	 8.0980
12.6780	 7.7530
12.7090	 7.9620
12.7410	 7.7080
12.7720	 7.6160
12.8030	 7.3960
12.8350	 7.7270
12.8670	 7.5420
12.8990	 7.8690
12.9310	 7.8430
12.9640	 7.8540
12.9960	 7.4350
13.0290	 7.5250
13.0610	 7.3490
13.0940	 7.7150
13.1280	 7.6740
13.1610	 7.9340
13.1940	 7.5610
13.2280	 7.2600
13.2620	 7.1640
13.2960	 7.7000
13.3300	 7.3810
13.3640	 7.6850
13.3990	 7.4110
13.4340	 7.6010
13.4690	 7.3230
13.5040	 7.6030
13.5390	 7.1730
13.5740	 7.1720
13.6100	 6.9550
13.6460	 7.2720
13.6820	 7.4210
13.7180	 7.8750
13.7540	 7.3510
13.7910	 7.4050
13.8280	 7.0830
13.8650	 7.4930
13.9020	 7.8700
13.9390	 8.6940
13.9770	 8.5210
14.0150	 8.4120
14.0530	 7.9750
14.0910	 8.3380
14.1290	 7.8370
14.1680	 8.0000
14.2070	 7.6920
14.2460	 8.0190
14.2850	 7.8710
14.3240	 8.0820
14.3640	 7.5680
14.4040	 7.5660
14.4440	 7.1120
14.4840	 7.6610
14.5250	 7.4760
14.5660	 8.0100
14.6070	 7.7380
14.6480	 7.7100
14.6900	 6.9090
14.7310	 7.3900
14.7730	 7.0360
14.8150	 7.7240
14.8580	 7.3960
14.9010	 7.9530
14.9440	 7.5410
14.9870	 7.6090
15.0300	 7.0160
15.0740	 7.7880
15.1180	 7.3290
15.1620	 7.6330
15.2060	 7.0360
15.2510	 7.4700
15.2960	 6.9620
15.3410	 7.8000
15.3870	 7.2720
