Name: Ficus macrophylla f. columnaris
Type: vegetation
Class: Tree
Genus: Ficus
Species: macrophylla_columnaris
Sample No.: JPL095
Owner: JPL
Wavelength Range: TIR
Origin: 34.12573; - 118.11237; WGS84
Collection Date: 2/2/2016
Description: Samples were collected at the Huntington Garden in San Marino California as part of a JPL Subcontract studying HyTES imagery. Samples were taken to JPL and processed within 48 hours of collection. The same leaves were processed in the Nicolet and then measured using the ASD.
Measurement: Hemispherical reflectance
First Column: X
Second Column: Y
X Units: Wavelength (micrometer)
Y Units: Reflectance (percentage)
First X Value: 2.501
Last X Value: 15.387
Number of X Values: 1737
Additional Information: 

 2.5010	 3.4370
 2.5030	 3.4270
 2.5040	 3.4490
 2.5050	 3.4340
 2.5060	 3.4870
 2.5070	 3.5120
 2.5090	 3.4800
 2.5100	 3.4330
 2.5110	 3.4060
 2.5120	 3.3760
 2.5140	 3.3940
 2.5150	 3.4020
 2.5160	 3.4310
 2.5170	 3.4470
 2.5180	 3.4880
 2.5200	 3.4620
 2.5210	 3.4270
 2.5220	 3.3790
 2.5230	 3.4100
 2.5250	 3.4220
 2.5260	 3.4700
 2.5270	 3.4710
 2.5280	 3.5020
 2.5300	 3.4750
 2.5310	 3.4260
 2.5320	 3.4250
 2.5330	 3.4770
 2.5340	 3.4320
 2.5360	 3.4100
 2.5370	 3.4140
 2.5380	 3.4210
 2.5390	 3.3790
 2.5410	 3.3860
 2.5420	 3.3410
 2.5430	 3.3770
 2.5440	 3.4020
 2.5460	 3.4160
 2.5470	 3.4410
 2.5480	 3.4700
 2.5490	 3.4350
 2.5510	 3.4520
 2.5520	 3.4550
 2.5530	 3.4260
 2.5540	 3.4140
 2.5560	 3.4410
 2.5570	 3.4580
 2.5580	 3.5020
 2.5590	 3.4930
 2.5610	 3.4850
 2.5620	 3.4740
 2.5630	 3.4350
 2.5650	 3.3970
 2.5660	 3.4090
 2.5670	 3.3800
 2.5680	 3.3940
 2.5700	 3.4440
 2.5710	 3.4690
 2.5720	 3.4500
 2.5730	 3.5260
 2.5750	 3.5150
 2.5760	 3.4870
 2.5770	 3.4400
 2.5790	 3.4400
 2.5800	 3.3780
 2.5810	 3.3560
 2.5820	 3.3890
 2.5840	 3.5280
 2.5850	 3.5020
 2.5860	 3.4840
 2.5880	 3.4760
 2.5890	 3.4110
 2.5900	 3.4010
 2.5910	 3.4640
 2.5930	 3.4480
 2.5940	 3.4960
 2.5950	 3.6060
 2.5970	 3.5220
 2.5980	 3.3650
 2.5990	 3.3380
 2.6010	 3.3330
 2.6020	 3.3070
 2.6030	 3.2810
 2.6040	 3.3460
 2.6060	 3.4000
 2.6070	 3.3780
 2.6080	 3.2890
 2.6100	 3.2730
 2.6110	 3.2760
 2.6120	 3.2910
 2.6140	 3.2950
 2.6150	 3.2820
 2.6160	 3.3200
 2.6180	 3.3700
 2.6190	 3.3010
 2.6200	 3.3760
 2.6220	 3.3330
 2.6230	 3.2340
 2.6240	 3.2230
 2.6260	 3.2490
 2.6270	 3.3140
 2.6280	 3.3070
 2.6300	 3.2700
 2.6310	 3.3370
 2.6320	 3.2720
 2.6340	 3.2530
 2.6350	 3.2460
 2.6360	 3.2430
 2.6380	 3.1980
 2.6390	 3.2110
 2.6400	 3.2350
 2.6420	 3.2660
 2.6430	 3.2470
 2.6440	 3.2610
 2.6460	 3.2650
 2.6470	 3.2200
 2.6480	 3.1730
 2.6500	 3.2210
 2.6510	 3.1900
 2.6520	 3.2050
 2.6540	 3.1560
 2.6550	 3.1770
 2.6570	 3.1560
 2.6580	 3.1650
 2.6590	 3.2210
 2.6610	 3.2600
 2.6620	 3.2390
 2.6630	 3.2230
 2.6650	 3.2580
 2.6660	 3.3000
 2.6670	 3.2720
 2.6690	 3.2530
 2.6700	 3.2750
 2.6720	 3.3220
 2.6730	 3.2430
 2.6740	 3.1940
 2.6760	 3.1870
 2.6770	 3.2630
 2.6780	 3.2570
 2.6800	 3.2770
 2.6810	 3.2060
 2.6830	 3.1550
 2.6840	 3.1260
 2.6850	 3.1240
 2.6870	 3.1060
 2.6880	 3.1280
 2.6900	 3.1580
 2.6910	 3.1940
 2.6920	 3.1860
 2.6940	 3.2040
 2.6950	 3.1690
 2.6970	 3.1630
 2.6980	 3.1370
 2.6990	 3.1760
 2.7010	 3.1850
 2.7020	 3.2150
 2.7040	 3.2020
 2.7050	 3.1450
 2.7060	 3.1330
 2.7080	 3.1850
 2.7090	 3.1830
 2.7110	 3.2410
 2.7120	 3.2310
 2.7130	 3.1380
 2.7150	 3.0800
 2.7160	 3.1200
 2.7180	 3.1480
 2.7190	 3.1900
 2.7210	 3.2440
 2.7220	 3.2730
 2.7230	 3.2390
 2.7250	 3.2130
 2.7260	 3.1130
 2.7280	 3.0630
 2.7290	 3.0430
 2.7310	 3.1100
 2.7320	 3.1030
 2.7340	 3.1250
 2.7350	 3.1740
 2.7360	 3.1940
 2.7380	 3.1770
 2.7390	 3.2340
 2.7410	 3.2090
 2.7420	 3.1630
 2.7440	 3.0710
 2.7450	 3.0370
 2.7470	 3.0310
 2.7480	 3.1110
 2.7490	 3.1080
 2.7510	 3.1080
 2.7520	 3.1230
 2.7540	 3.1780
 2.7550	 3.2370
 2.7570	 3.2390
 2.7580	 3.1630
 2.7600	 3.1520
 2.7610	 3.1190
 2.7630	 3.1050
 2.7640	 3.0980
 2.7660	 3.1390
 2.7670	 3.1310
 2.7690	 3.1170
 2.7700	 3.1230
 2.7720	 3.1490
 2.7730	 3.0930
 2.7740	 3.1240
 2.7760	 3.1310
 2.7770	 3.1200
 2.7790	 3.0760
 2.7800	 3.1020
 2.7820	 3.0860
 2.7830	 3.0620
 2.7850	 3.0890
 2.7860	 3.2100
 2.7880	 3.2070
 2.7890	 3.1570
 2.7910	 3.1080
 2.7920	 3.1120
 2.7940	 3.1450
 2.7950	 3.1560
 2.7970	 3.1050
 2.7980	 3.1310
 2.8000	 3.1390
 2.8010	 3.1640
 2.8030	 3.1680
 2.8040	 3.1460
 2.8060	 3.1340
 2.8080	 3.1670
 2.8090	 3.1050
 2.8110	 3.1330
 2.8120	 3.1200
 2.8140	 3.1380
 2.8150	 3.1170
 2.8170	 3.1430
 2.8180	 3.1130
 2.8200	 3.0910
 2.8210	 3.0100
 2.8230	 3.0050
 2.8240	 2.9840
 2.8260	 3.0200
 2.8270	 3.0480
 2.8290	 3.0860
 2.8310	 3.0830
 2.8320	 3.1460
 2.8340	 3.1410
 2.8350	 3.0920
 2.8370	 3.0720
 2.8380	 3.1110
 2.8400	 3.1020
 2.8410	 3.1310
 2.8430	 3.1280
 2.8440	 3.1410
 2.8460	 3.1390
 2.8480	 3.1530
 2.8490	 3.1290
 2.8510	 3.0630
 2.8520	 3.0160
 2.8540	 3.1140
 2.8550	 3.1420
 2.8570	 3.0990
 2.8590	 3.0570
 2.8600	 3.0470
 2.8620	 3.0040
 2.8630	 3.0450
 2.8650	 3.0000
 2.8660	 2.9720
 2.8680	 3.0030
 2.8700	 3.0620
 2.8710	 3.0810
 2.8730	 3.0830
 2.8740	 3.0650
 2.8760	 3.0950
 2.8780	 3.0680
 2.8790	 3.1400
 2.8810	 3.1650
 2.8820	 3.1370
 2.8840	 3.1410
 2.8860	 3.1990
 2.8870	 3.1910
 2.8890	 3.2020
 2.8900	 3.1130
 2.8920	 3.0980
 2.8940	 3.0970
 2.8950	 3.1180
 2.8970	 3.1110
 2.8990	 3.1080
 2.9000	 3.0850
 2.9020	 3.0740
 2.9030	 3.0600
 2.9050	 3.0550
 2.9070	 3.0840
 2.9080	 3.1530
 2.9100	 3.1200
 2.9120	 3.0930
 2.9130	 3.1000
 2.9150	 3.1360
 2.9160	 3.0960
 2.9180	 3.1040
 2.9200	 3.0690
 2.9210	 3.1050
 2.9230	 3.1390
 2.9250	 3.1770
 2.9260	 3.1580
 2.9280	 3.1100
 2.9300	 3.1080
 2.9310	 3.1430
 2.9330	 3.1460
 2.9350	 3.1330
 2.9360	 3.0360
 2.9380	 2.9880
 2.9400	 3.0310
 2.9410	 3.1520
 2.9430	 3.1800
 2.9450	 3.1880
 2.9460	 3.1820
 2.9480	 3.1390
 2.9500	 3.0810
 2.9510	 3.0970
 2.9530	 3.1110
 2.9550	 3.1220
 2.9560	 3.0890
 2.9580	 3.0920
 2.9600	 3.1210
 2.9610	 3.1950
 2.9630	 3.1150
 2.9650	 3.0740
 2.9670	 3.0770
 2.9680	 3.1070
 2.9700	 3.1150
 2.9720	 3.1250
 2.9730	 3.1340
 2.9750	 3.1560
 2.9770	 3.1470
 2.9780	 3.1520
 2.9800	 3.0790
 2.9820	 3.1070
 2.9840	 3.1000
 2.9850	 3.0920
 2.9870	 3.0390
 2.9890	 3.0490
 2.9900	 3.0380
 2.9920	 3.1150
 2.9940	 3.2030
 2.9960	 3.1840
 2.9970	 3.0970
 2.9990	 3.0940
 3.0010	 3.1330
 3.0030	 3.1100
 3.0040	 3.1160
 3.0060	 3.1590
 3.0080	 3.1090
 3.0100	 3.1120
 3.0110	 3.0680
 3.0130	 3.0630
 3.0150	 3.0190
 3.0170	 3.0020
 3.0180	 3.0120
 3.0200	 3.0700
 3.0220	 3.1110
 3.0240	 3.1380
 3.0250	 3.0640
 3.0270	 3.1000
 3.0290	 3.0860
 3.0310	 3.0580
 3.0320	 3.0550
 3.0340	 3.0950
 3.0360	 3.1340
 3.0380	 3.1900
 3.0400	 3.1790
 3.0410	 3.1110
 3.0430	 3.0650
 3.0450	 3.0730
 3.0470	 3.0570
 3.0480	 3.0880
 3.0500	 3.0810
 3.0520	 3.0320
 3.0540	 2.9430
 3.0560	 2.9780
 3.0570	 3.0250
 3.0590	 3.0540
 3.0610	 3.0110
 3.0630	 2.9990
 3.0650	 3.0030
 3.0670	 3.0580
 3.0680	 3.0870
 3.0700	 3.1360
 3.0720	 3.0900
 3.0740	 3.0420
 3.0760	 3.0920
 3.0770	 3.1120
 3.0790	 3.0120
 3.0810	 2.9820
 3.0830	 3.0080
 3.0850	 3.0340
 3.0870	 3.0050
 3.0880	 3.0260
 3.0900	 2.9840
 3.0920	 3.0250
 3.0940	 3.0640
 3.0960	 3.0630
 3.0980	 3.0270
 3.1000	 3.0310
 3.1010	 3.0200
 3.1030	 3.0200
 3.1050	 3.0410
 3.1070	 3.0570
 3.1090	 3.0540
 3.1110	 3.0170
 3.1130	 2.9430
 3.1140	 2.9680
 3.1160	 3.0010
 3.1180	 3.0710
 3.1200	 3.0550
 3.1220	 3.0620
 3.1240	 2.9980
 3.1260	 3.0020
 3.1280	 2.9860
 3.1290	 2.9770
 3.1310	 3.0110
 3.1330	 3.0110
 3.1350	 2.9450
 3.1370	 2.9360
 3.1390	 2.9330
 3.1410	 3.0010
 3.1430	 3.0080
 3.1450	 3.0060
 3.1470	 2.9880
 3.1480	 3.0230
 3.1500	 3.0450
 3.1520	 3.0230
 3.1540	 3.0000
 3.1560	 3.0170
 3.1580	 3.0190
 3.1600	 3.0320
 3.1620	 2.9810
 3.1640	 2.9050
 3.1660	 2.8830
 3.1680	 2.9540
 3.1700	 2.9450
 3.1720	 2.9600
 3.1730	 2.9620
 3.1750	 2.9410
 3.1770	 2.9400
 3.1790	 2.9610
 3.1810	 2.9500
 3.1830	 3.0110
 3.1850	 2.9780
 3.1870	 2.9460
 3.1890	 2.9740
 3.1910	 2.9930
 3.1930	 2.9780
 3.1950	 2.9070
 3.1970	 2.8720
 3.1990	 2.9070
 3.2010	 2.9030
 3.2030	 2.9340
 3.2050	 2.9190
 3.2070	 2.9060
 3.2090	 2.9320
 3.2110	 2.9780
 3.2130	 2.9300
 3.2150	 2.8870
 3.2170	 2.8910
 3.2190	 2.9080
 3.2210	 2.8870
 3.2230	 2.9000
 3.2250	 2.9150
 3.2270	 2.9270
 3.2290	 2.8940
 3.2310	 2.9160
 3.2330	 2.9130
 3.2350	 2.9280
 3.2370	 2.8970
 3.2390	 2.8780
 3.2410	 2.8950
 3.2430	 2.9090
 3.2450	 2.8380
 3.2470	 2.8640
 3.2490	 2.8760
 3.2510	 2.8560
 3.2530	 2.8260
 3.2550	 2.8590
 3.2570	 2.8690
 3.2590	 2.8920
 3.2610	 2.9170
 3.2630	 2.8990
 3.2650	 2.8010
 3.2670	 2.7710
 3.2700	 2.8080
 3.2720	 2.8360
 3.2740	 2.8240
 3.2760	 2.8170
 3.2780	 2.8010
 3.2800	 2.8300
 3.2820	 2.7960
 3.2840	 2.7950
 3.2860	 2.7910
 3.2880	 2.7650
 3.2900	 2.7250
 3.2920	 2.7930
 3.2940	 2.8110
 3.2970	 2.7630
 3.2990	 2.6940
 3.3010	 2.6640
 3.3030	 2.6500
 3.3050	 2.6820
 3.3070	 2.7220
 3.3090	 2.7430
 3.3110	 2.7010
 3.3130	 2.6580
 3.3160	 2.6540
 3.3180	 2.6870
 3.3200	 2.6820
 3.3220	 2.7110
 3.3240	 2.6820
 3.3260	 2.6300
 3.3280	 2.5830
 3.3300	 2.5880
 3.3330	 2.6140
 3.3350	 2.6380
 3.3370	 2.6380
 3.3390	 2.6150
 3.3410	 2.5310
 3.3430	 2.5350
 3.3450	 2.5150
 3.3480	 2.5230
 3.3500	 2.5200
 3.3520	 2.5060
 3.3540	 2.4590
 3.3560	 2.4050
 3.3580	 2.3650
 3.3610	 2.3920
 3.3630	 2.3980
 3.3650	 2.3800
 3.3670	 2.3030
 3.3690	 2.2880
 3.3720	 2.2810
 3.3740	 2.2830
 3.3760	 2.2970
 3.3780	 2.3060
 3.3800	 2.2390
 3.3830	 2.2390
 3.3850	 2.2770
 3.3870	 2.3100
 3.3890	 2.2570
 3.3910	 2.1580
 3.3940	 2.0450
 3.3960	 2.0250
 3.3980	 2.0290
 3.4000	 2.0190
 3.4030	 1.9730
 3.4050	 1.9650
 3.4070	 1.9280
 3.4090	 1.9330
 3.4110	 1.9890
 3.4140	 2.1210
 3.4160	 2.3340
 3.4180	 2.6220
 3.4200	 3.0200
 3.4230	 3.7170
 3.4250	 4.7380
 3.4270	 5.9890
 3.4300	 6.8650
 3.4320	 6.9410
 3.4340	 6.3250
 3.4360	 5.6340
 3.4390	 5.1500
 3.4410	 4.8520
 3.4430	 4.6540
 3.4450	 4.5050
 3.4480	 4.3510
 3.4500	 4.2680
 3.4520	 4.1930
 3.4550	 4.1460
 3.4570	 4.1020
 3.4590	 4.0740
 3.4620	 4.0070
 3.4640	 3.9910
 3.4660	 3.9330
 3.4690	 3.8490
 3.4710	 3.7560
 3.4730	 3.7010
 3.4760	 3.6350
 3.4780	 3.5530
 3.4800	 3.4580
 3.4830	 3.3930
 3.4850	 3.2970
 3.4870	 3.2270
 3.4900	 3.1470
 3.4920	 3.0680
 3.4940	 2.9470
 3.4970	 2.8870
 3.4990	 2.8640
 3.5010	 2.8490
 3.5040	 2.9690
 3.5060	 3.5010
 3.5080	 4.6790
 3.5110	 6.0320
 3.5130	 6.4420
 3.5160	 6.0440
 3.5180	 5.5090
 3.5200	 5.1250
 3.5230	 4.8400
 3.5250	 4.6510
 3.5280	 4.5400
 3.5300	 4.4250
 3.5320	 4.2770
 3.5350	 4.2160
 3.5370	 4.1460
 3.5400	 4.1000
 3.5420	 4.0430
 3.5440	 3.9740
 3.5470	 3.9120
 3.5490	 3.8870
 3.5520	 3.8930
 3.5540	 3.9100
 3.5570	 3.8390
 3.5590	 3.7710
 3.5610	 3.7250
 3.5640	 3.7410
 3.5660	 3.7310
 3.5690	 3.7310
 3.5710	 3.7510
 3.5740	 3.7350
 3.5760	 3.6650
 3.5790	 3.6890
 3.5810	 3.6900
 3.5840	 3.6650
 3.5860	 3.6220
 3.5890	 3.6210
 3.5910	 3.6190
 3.5940	 3.6120
 3.5960	 3.5950
 3.5990	 3.5860
 3.6010	 3.6080
 3.6040	 3.6130
 3.6060	 3.5390
 3.6090	 3.4950
 3.6110	 3.4920
 3.6140	 3.5230
 3.6160	 3.5220
 3.6190	 3.5060
 3.6210	 3.5020
 3.6240	 3.5150
 3.6260	 3.5220
 3.6290	 3.5240
 3.6310	 3.5010
 3.6340	 3.4730
 3.6360	 3.4520
 3.6390	 3.4590
 3.6410	 3.4490
 3.6440	 3.4550
 3.6470	 3.4890
 3.6490	 3.4810
 3.6520	 3.4410
 3.6540	 3.4390
 3.6570	 3.4220
 3.6590	 3.4660
 3.6620	 3.4780
 3.6650	 3.4450
 3.6670	 3.4070
 3.6700	 3.3900
 3.6720	 3.4010
 3.6750	 3.4100
 3.6780	 3.3870
 3.6800	 3.3530
 3.6830	 3.3500
 3.6850	 3.3740
 3.6880	 3.3690
 3.6910	 3.3740
 3.6930	 3.3350
 3.6960	 3.3680
 3.6990	 3.3650
 3.7010	 3.3880
 3.7040	 3.3900
 3.7070	 3.3680
 3.7090	 3.3450
 3.7120	 3.3550
 3.7150	 3.3830
 3.7170	 3.3650
 3.7200	 3.3220
 3.7230	 3.3370
 3.7250	 3.3440
 3.7280	 3.3620
 3.7310	 3.3580
 3.7330	 3.3470
 3.7360	 3.3320
 3.7390	 3.3480
 3.7410	 3.3480
 3.7440	 3.3380
 3.7470	 3.3340
 3.7490	 3.3460
 3.7520	 3.3480
 3.7550	 3.3770
 3.7580	 3.3540
 3.7600	 3.2960
 3.7630	 3.2910
 3.7660	 3.3310
 3.7690	 3.3130
 3.7710	 3.3180
 3.7740	 3.3210
 3.7770	 3.3290
 3.7790	 3.3400
 3.7820	 3.3330
 3.7850	 3.3300
 3.7880	 3.3130
 3.7910	 3.2830
 3.7930	 3.3040
 3.7960	 3.3050
 3.7990	 3.3100
 3.8020	 3.2950
 3.8040	 3.2970
 3.8070	 3.3210
 3.8100	 3.3150
 3.8130	 3.3020
 3.8160	 3.2980
 3.8180	 3.2940
 3.8210	 3.3160
 3.8240	 3.3290
 3.8270	 3.3260
 3.8300	 3.3050
 3.8330	 3.3540
 3.8350	 3.3460
 3.8380	 3.3060
 3.8410	 3.3060
 3.8440	 3.3460
 3.8470	 3.3100
 3.8500	 3.2880
 3.8520	 3.3260
 3.8550	 3.3190
 3.8580	 3.3130
 3.8610	 3.3340
 3.8640	 3.3500
 3.8670	 3.3660
 3.8700	 3.3340
 3.8730	 3.3030
 3.8760	 3.3100
 3.8780	 3.3160
 3.8810	 3.2910
 3.8840	 3.2670
 3.8870	 3.2800
 3.8900	 3.3040
 3.8930	 3.2970
 3.8960	 3.3020
 3.8990	 3.2880
 3.9020	 3.3000
 3.9050	 3.2980
 3.9080	 3.3070
 3.9110	 3.3180
 3.9140	 3.3150
 3.9170	 3.3140
 3.9190	 3.3240
 3.9220	 3.3190
 3.9250	 3.3210
 3.9280	 3.2980
 3.9310	 3.2750
 3.9340	 3.2930
 3.9370	 3.3130
 3.9400	 3.2850
 3.9430	 3.2950
 3.9460	 3.2990
 3.9490	 3.2900
 3.9520	 3.2740
 3.9550	 3.2720
 3.9580	 3.2990
 3.9610	 3.2840
 3.9640	 3.2470
 3.9670	 3.2800
 3.9700	 3.2780
 3.9740	 3.2650
 3.9770	 3.2420
 3.9800	 3.2440
 3.9830	 3.2860
 3.9860	 3.3020
 3.9890	 3.2720
 3.9920	 3.2500
 3.9950	 3.2460
 3.9980	 3.2770
 4.0010	 3.3100
 4.0040	 3.3100
 4.0070	 3.2890
 4.0100	 3.2700
 4.0140	 3.2490
 4.0170	 3.2540
 4.0200	 3.2640
 4.0230	 3.2920
 4.0260	 3.2890
 4.0290	 3.2810
 4.0320	 3.2690
 4.0350	 3.2550
 4.0390	 3.2580
 4.0420	 3.2690
 4.0450	 3.2540
 4.0480	 3.2670
 4.0510	 3.2400
 4.0540	 3.2350
 4.0570	 3.2470
 4.0610	 3.2530
 4.0640	 3.2520
 4.0670	 3.2650
 4.0700	 3.2360
 4.0730	 3.2440
 4.0770	 3.2560
 4.0800	 3.2650
 4.0830	 3.2670
 4.0860	 3.2790
 4.0890	 3.2760
 4.0930	 3.2420
 4.0960	 3.2260
 4.0990	 3.2300
 4.1020	 3.2380
 4.1060	 3.2250
 4.1090	 3.2210
 4.1120	 3.2440
 4.1150	 3.2350
 4.1190	 3.2330
 4.1220	 3.2480
 4.1250	 3.2250
 4.1290	 3.2200
 4.1320	 3.2300
 4.1350	 3.2120
 4.1380	 3.2120
 4.1420	 3.2210
 4.1450	 3.2060
 4.1480	 3.1960
 4.1520	 3.1800
 4.1550	 3.1600
 4.1580	 3.1580
 4.1620	 3.1870
 4.1650	 3.2250
 4.1680	 3.2270
 4.1720	 3.2360
 4.1750	 3.2730
 4.1780	 3.2560
 4.1820	 3.2270
 4.1850	 3.2510
 4.1890	 3.2630
 4.1920	 3.2390
 4.1950	 3.2280
 4.1990	 3.2350
 4.2020	 3.2320
 4.2060	 3.2400
 4.2090	 3.2620
 4.2120	 3.3180
 4.2160	 3.3700
 4.2190	 3.3230
 4.2230	 3.2520
 4.2260	 3.2730
 4.2300	 3.3340
 4.2330	 3.3220
 4.2360	 3.3040
 4.2400	 3.3500
 4.2430	 3.3560
 4.2470	 3.3050
 4.2500	 3.2820
 4.2540	 3.2780
 4.2570	 3.3000
 4.2610	 3.3290
 4.2640	 3.3340
 4.2680	 3.2640
 4.2710	 3.2450
 4.2750	 3.3120
 4.2780	 3.3000
 4.2820	 3.2610
 4.2850	 3.2970
 4.2890	 3.2800
 4.2930	 3.2560
 4.2960	 3.2880
 4.3000	 3.2830
 4.3030	 3.2580
 4.3070	 3.2580
 4.3100	 3.2800
 4.3140	 3.2920
 4.3180	 3.2340
 4.3210	 3.2280
 4.3250	 3.2290
 4.3280	 3.2640
 4.3320	 3.2740
 4.3360	 3.2450
 4.3390	 3.1990
 4.3430	 3.2240
 4.3470	 3.2400
 4.3500	 3.2060
 4.3540	 3.1800
 4.3580	 3.2180
 4.3610	 3.2000
 4.3650	 3.1630
 4.3690	 3.1480
 4.3720	 3.1510
 4.3760	 3.1570
 4.3800	 3.1870
 4.3830	 3.2180
 4.3870	 3.2050
 4.3910	 3.2060
 4.3940	 3.2180
 4.3980	 3.2040
 4.4020	 3.2100
 4.4060	 3.1870
 4.4090	 3.1490
 4.4130	 3.1190
 4.4170	 3.1800
 4.4210	 3.2210
 4.4240	 3.1840
 4.4280	 3.1550
 4.4320	 3.1670
 4.4360	 3.2040
 4.4400	 3.2110
 4.4430	 3.1540
 4.4470	 3.1380
 4.4510	 3.1640
 4.4550	 3.1620
 4.4590	 3.1500
 4.4630	 3.1660
 4.4660	 3.1620
 4.4700	 3.1490
 4.4740	 3.1450
 4.4780	 3.1710
 4.4820	 3.2000
 4.4860	 3.2150
 4.4900	 3.1860
 4.4930	 3.1590
 4.4970	 3.1560
 4.5010	 3.1800
 4.5050	 3.1630
 4.5090	 3.1670
 4.5130	 3.1830
 4.5170	 3.1970
 4.5210	 3.1900
 4.5250	 3.1630
 4.5290	 3.1350
 4.5330	 3.1320
 4.5370	 3.1410
 4.5410	 3.1660
 4.5450	 3.1640
 4.5490	 3.1700
 4.5530	 3.1810
 4.5570	 3.1840
 4.5610	 3.1750
 4.5650	 3.1740
 4.5690	 3.1550
 4.5730	 3.1480
 4.5770	 3.1300
 4.5810	 3.1250
 4.5850	 3.1430
 4.5890	 3.1520
 4.5930	 3.1430
 4.5970	 3.1270
 4.6010	 3.1490
 4.6050	 3.1900
 4.6090	 3.1990
 4.6130	 3.1880
 4.6170	 3.1610
 4.6220	 3.1590
 4.6260	 3.1360
 4.6300	 3.1190
 4.6340	 3.1550
 4.6380	 3.1720
 4.6420	 3.1640
 4.6460	 3.1690
 4.6510	 3.1580
 4.6550	 3.1710
 4.6590	 3.1590
 4.6630	 3.1570
 4.6670	 3.1560
 4.6720	 3.1570
 4.6760	 3.1590
 4.6800	 3.1570
 4.6840	 3.1340
 4.6880	 3.1280
 4.6930	 3.1150
 4.6970	 3.1410
 4.7010	 3.1310
 4.7050	 3.1340
 4.7100	 3.1390
 4.7140	 3.1720
 4.7180	 3.1790
 4.7230	 3.1530
 4.7270	 3.1210
 4.7310	 3.1420
 4.7360	 3.1620
 4.7400	 3.1520
 4.7440	 3.1640
 4.7490	 3.1750
 4.7530	 3.1630
 4.7570	 3.1750
 4.7620	 3.1610
 4.7660	 3.1610
 4.7700	 3.1560
 4.7750	 3.1690
 4.7790	 3.1630
 4.7840	 3.1460
 4.7880	 3.1430
 4.7920	 3.1450
 4.7970	 3.1580
 4.8010	 3.1710
 4.8060	 3.1480
 4.8100	 3.1590
 4.8150	 3.1530
 4.8190	 3.1380
 4.8240	 3.1470
 4.8280	 3.1520
 4.8330	 3.0960
 4.8370	 3.1310
 4.8420	 3.1740
 4.8460	 3.1590
 4.8510	 3.1430
 4.8550	 3.1760
 4.8600	 3.1590
 4.8640	 3.1250
 4.8690	 3.1310
 4.8740	 3.1140
 4.8780	 3.1020
 4.8830	 3.1110
 4.8870	 3.1140
 4.8920	 3.1110
 4.8970	 3.1050
 4.9010	 3.1160
 4.9060	 3.1220
 4.9100	 3.1260
 4.9150	 3.1170
 4.9200	 3.1160
 4.9240	 3.0770
 4.9290	 3.1020
 4.9340	 3.1190
 4.9390	 3.1370
 4.9430	 3.1370
 4.9480	 3.1190
 4.9530	 3.0820
 4.9570	 3.1150
 4.9620	 3.0940
 4.9670	 3.0610
 4.9720	 3.0720
 4.9760	 3.1290
 4.9810	 3.1250
 4.9860	 3.1200
 4.9910	 3.1100
 4.9960	 3.1190
 5.0000	 3.1240
 5.0050	 3.1230
 5.0100	 3.1000
 5.0150	 3.1260
 5.0200	 3.1440
 5.0250	 3.1800
 5.0300	 3.1540
 5.0340	 3.1500
 5.0390	 3.1360
 5.0440	 3.1300
 5.0490	 3.1340
 5.0540	 3.1070
 5.0590	 3.1050
 5.0640	 3.1250
 5.0690	 3.0990
 5.0740	 3.1330
 5.0790	 3.1440
 5.0840	 3.1270
 5.0890	 3.1170
 5.0940	 3.1280
 5.0990	 3.0840
 5.1040	 3.0900
 5.1090	 3.0860
 5.1140	 3.0790
 5.1190	 3.0960
 5.1240	 3.1460
 5.1290	 3.1390
 5.1340	 3.1210
 5.1390	 3.1210
 5.1440	 3.1260
 5.1490	 3.1220
 5.1550	 3.1010
 5.1600	 3.0620
 5.1650	 3.0770
 5.1700	 3.0830
 5.1750	 3.0990
 5.1800	 3.1160
 5.1850	 3.1400
 5.1910	 3.1420
 5.1960	 3.1360
 5.2010	 3.0880
 5.2060	 3.1200
 5.2110	 3.1410
 5.2170	 3.1360
 5.2220	 3.1000
 5.2270	 3.1210
 5.2330	 3.1000
 5.2380	 3.0970
 5.2430	 3.1150
 5.2480	 3.1370
 5.2540	 3.1240
 5.2590	 3.1350
 5.2640	 3.0900
 5.2700	 3.0840
 5.2750	 3.0790
 5.2800	 3.0780
 5.2860	 3.0640
 5.2910	 3.0870
 5.2970	 3.0720
 5.3020	 3.0910
 5.3080	 3.1040
 5.3130	 3.1030
 5.3180	 3.0740
 5.3240	 3.1010
 5.3290	 3.0880
 5.3350	 3.1260
 5.3400	 3.1020
 5.3460	 3.1070
 5.3510	 3.0920
 5.3570	 3.0750
 5.3620	 3.0550
 5.3680	 3.0960
 5.3740	 3.0840
 5.3790	 3.0920
 5.3850	 3.1100
 5.3900	 3.0920
 5.3960	 3.0620
 5.4010	 3.0500
 5.4070	 3.0360
 5.4130	 3.0860
 5.4180	 3.1210
 5.4240	 3.1420
 5.4300	 3.0660
 5.4350	 3.0490
 5.4410	 3.0500
 5.4470	 3.0690
 5.4530	 3.0590
 5.4580	 3.1110
 5.4640	 3.1330
 5.4700	 3.1190
 5.4760	 3.1120
 5.4810	 3.0970
 5.4870	 3.0490
 5.4930	 3.0510
 5.4990	 3.0690
 5.5050	 3.0950
 5.5110	 3.0490
 5.5160	 3.0510
 5.5220	 3.0560
 5.5280	 3.0810
 5.5340	 3.0480
 5.5400	 3.0560
 5.5460	 3.0670
 5.5520	 3.0910
 5.5580	 3.0140
 5.5640	 2.9950
 5.5700	 2.9730
 5.5760	 3.0340
 5.5820	 3.0680
 5.5880	 3.0470
 5.5940	 3.0060
 5.6000	 2.9940
 5.6060	 3.0030
 5.6120	 3.0450
 5.6180	 3.0300
 5.6240	 3.0220
 5.6300	 3.0110
 5.6360	 3.0260
 5.6420	 3.0430
 5.6490	 3.0360
 5.6550	 3.0210
 5.6610	 3.0300
 5.6670	 2.9650
 5.6730	 2.9770
 5.6800	 2.9710
 5.6860	 2.9390
 5.6920	 2.9100
 5.6980	 2.9270
 5.7050	 2.8740
 5.7110	 2.8530
 5.7170	 2.8450
 5.7230	 2.8340
 5.7300	 2.7700
 5.7360	 2.7800
 5.7420	 2.7760
 5.7490	 2.8320
 5.7550	 2.8440
 5.7620	 2.9470
 5.7680	 3.0080
 5.7740	 2.9820
 5.7810	 3.0160
 5.7870	 3.0760
 5.7940	 3.0610
 5.8000	 3.1110
 5.8070	 3.0960
 5.8130	 3.1540
 5.8200	 3.2400
 5.8260	 3.3130
 5.8330	 3.2840
 5.8390	 3.2650
 5.8460	 3.2300
 5.8530	 3.2390
 5.8590	 3.2540
 5.8660	 3.3270
 5.8730	 3.3430
 5.8790	 3.4640
 5.8860	 3.4420
 5.8930	 3.4590
 5.8990	 3.4490
 5.9060	 3.3600
 5.9130	 3.3110
 5.9190	 3.3390
 5.9260	 3.3420
 5.9330	 3.4400
 5.9400	 3.4550
 5.9470	 3.3570
 5.9530	 3.2930
 5.9600	 3.3250
 5.9670	 3.3530
 5.9740	 3.3530
 5.9810	 3.2890
 5.9880	 3.3280
 5.9950	 3.3100
 6.0020	 3.2860
 6.0090	 3.2470
 6.0160	 3.2630
 6.0230	 3.2310
 6.0300	 3.2660
 6.0370	 3.2260
 6.0440	 3.3250
 6.0510	 3.3920
 6.0580	 3.2680
 6.0650	 3.1690
 6.0720	 3.2350
 6.0790	 3.2000
 6.0860	 3.1660
 6.0930	 3.1040
 6.1010	 3.1010
 6.1080	 3.1300
 6.1150	 3.1600
 6.1220	 3.0950
 6.1290	 3.1270
 6.1370	 3.0900
 6.1440	 3.0840
 6.1510	 3.0240
 6.1580	 3.0140
 6.1660	 2.9860
 6.1730	 3.0230
 6.1800	 3.0410
 6.1880	 3.1100
 6.1950	 3.0590
 6.2030	 3.0960
 6.2100	 3.1110
 6.2180	 3.1340
 6.2250	 3.1070
 6.2320	 3.1380
 6.2400	 3.1160
 6.2480	 3.1800
 6.2550	 3.1960
 6.2630	 3.2100
 6.2700	 3.1580
 6.2780	 3.2040
 6.2850	 3.1730
 6.2930	 3.1960
 6.3010	 3.2080
 6.3080	 3.2640
 6.3160	 3.2180
 6.3240	 3.2410
 6.3310	 3.2300
 6.3390	 3.3380
 6.3470	 3.3350
 6.3550	 3.2750
 6.3620	 3.2400
 6.3700	 3.2970
 6.3780	 3.2410
 6.3860	 3.2450
 6.3940	 3.2040
 6.4020	 3.2500
 6.4100	 3.3540
 6.4180	 3.4660
 6.4260	 3.3460
 6.4340	 3.2750
 6.4420	 3.2140
 6.4500	 3.2480
 6.4580	 3.2290
 6.4660	 3.2490
 6.4740	 3.2220
 6.4820	 3.2630
 6.4900	 3.3170
 6.4980	 3.3420
 6.5060	 3.1770
 6.5140	 3.1540
 6.5230	 3.1560
 6.5310	 3.1300
 6.5390	 3.0610
 6.5470	 3.0980
 6.5560	 3.0990
 6.5640	 3.1600
 6.5720	 3.1760
 6.5800	 3.1640
 6.5890	 3.1110
 6.5970	 3.1320
 6.6060	 3.0860
 6.6140	 3.0950
 6.6230	 3.0780
 6.6310	 3.2070
 6.6390	 3.2270
 6.6480	 3.1330
 6.6570	 3.0280
 6.6650	 3.0290
 6.6740	 2.9950
 6.6820	 3.0600
 6.6910	 3.0170
 6.7000	 3.0300
 6.7080	 3.0020
 6.7170	 3.0070
 6.7260	 2.9050
 6.7340	 2.8930
 6.7430	 2.8380
 6.7520	 2.8280
 6.7610	 2.7270
 6.7690	 2.6780
 6.7780	 2.7280
 6.7870	 3.1970
 6.7960	 3.4020
 6.8050	 3.2160
 6.8140	 3.0300
 6.8230	 3.0740
 6.8320	 3.3370
 6.8410	 3.6880
 6.8500	 3.6440
 6.8590	 3.5960
 6.8680	 3.4960
 6.8770	 3.4220
 6.8860	 3.3660
 6.8960	 3.3790
 6.9050	 3.3250
 6.9140	 3.3430
 6.9230	 3.3190
 6.9320	 3.3300
 6.9420	 3.2670
 6.9510	 3.3390
 6.9600	 3.3850
 6.9700	 3.3610
 6.9790	 3.2730
 6.9880	 3.3120
 6.9980	 3.2920
 7.0070	 3.3160
 7.0170	 3.3270
 7.0260	 3.3730
 7.0360	 3.3320
 7.0450	 3.3800
 7.0550	 3.3090
 7.0650	 3.3000
 7.0740	 3.2630
 7.0840	 3.3050
 7.0940	 3.3140
 7.1030	 3.3850
 7.1130	 3.3550
 7.1230	 3.3220
 7.1330	 3.2470
 7.1420	 3.2970
 7.1520	 3.3120
 7.1620	 3.3450
 7.1720	 3.2570
 7.1820	 3.2440
 7.1920	 3.2360
 7.2020	 3.3020
 7.2120	 3.2720
 7.2220	 3.2820
 7.2320	 3.2480
 7.2420	 3.2990
 7.2520	 3.2720
 7.2620	 3.2830
 7.2730	 3.2780
 7.2830	 3.3550
 7.2930	 3.3090
 7.3030	 3.3210
 7.3140	 3.3420
 7.3240	 3.3780
 7.3340	 3.3310
 7.3450	 3.3610
 7.3550	 3.2960
 7.3660	 3.2700
 7.3760	 3.2670
 7.3870	 3.3560
 7.3970	 3.3440
 7.4080	 3.3290
 7.4180	 3.2620
 7.4290	 3.3090
 7.4400	 3.2950
 7.4500	 3.2600
 7.4610	 3.1610
 7.4720	 3.2030
 7.4830	 3.2350
 7.4930	 3.2900
 7.5040	 3.2280
 7.5150	 3.2420
 7.5260	 3.1950
 7.5370	 3.2270
 7.5480	 3.2290
 7.5590	 3.2450
 7.5700	 3.1720
 7.5810	 3.2440
 7.5920	 3.1990
 7.6030	 3.1850
 7.6140	 3.1300
 7.6260	 3.1480
 7.6370	 3.1150
 7.6480	 3.1930
 7.6590	 3.1640
 7.6710	 3.1920
 7.6820	 3.1660
 7.6940	 3.1850
 7.7050	 3.1290
 7.7160	 3.1330
 7.7280	 3.0680
 7.7390	 3.1300
 7.7510	 3.0820
 7.7630	 3.1160
 7.7740	 3.0990
 7.7860	 3.1370
 7.7980	 3.0920
 7.8090	 3.1080
 7.8210	 3.0530
 7.8330	 3.1100
 7.8450	 3.0890
 7.8570	 3.1440
 7.8690	 3.1440
 7.8810	 3.1670
 7.8930	 3.0850
 7.9050	 3.1140
 7.9170	 3.0500
 7.9290	 3.0960
 7.9410	 3.0790
 7.9530	 3.1150
 7.9650	 3.1110
 7.9780	 3.1960
 7.9900	 3.1400
 8.0020	 3.1640
 8.0150	 3.1480
 8.0270	 3.2400
 8.0390	 3.2070
 8.0520	 3.1950
 8.0640	 3.1800
 8.0770	 3.2830
 8.0900	 3.1810
 8.1020	 3.2120
 8.1150	 3.1440
 8.1280	 3.2060
 8.1400	 3.1760
 8.1530	 3.2530
 8.1660	 3.2220
 8.1790	 3.2510
 8.1920	 3.2270
 8.2050	 3.3000
 8.2180	 3.2080
 8.2310	 3.2130
 8.2440	 3.1530
 8.2570	 3.2080
 8.2700	 3.1310
 8.2830	 3.1970
 8.2970	 3.1590
 8.3100	 3.2260
 8.3230	 3.1340
 8.3370	 3.2340
 8.3500	 3.1270
 8.3640	 3.1220
 8.3770	 3.0720
 8.3910	 3.1600
 8.4040	 3.1580
 8.4180	 3.2750
 8.4320	 3.1810
 8.4450	 3.1970
 8.4590	 3.1410
 8.4730	 3.1610
 8.4870	 3.1360
 8.5010	 3.2510
 8.5150	 3.1940
 8.5290	 3.2740
 8.5430	 3.2290
 8.5570	 3.2850
 8.5710	 3.1940
 8.5850	 3.3130
 8.5990	 3.2910
 8.6140	 3.4340
 8.6280	 3.4430
 8.6420	 3.4890
 8.6570	 3.4120
 8.6710	 3.4720
 8.6860	 3.4120
 8.7000	 3.4990
 8.7150	 3.4380
 8.7300	 3.4370
 8.7440	 3.3550
 8.7590	 3.4760
 8.7740	 3.4820
 8.7890	 3.5470
 8.8040	 3.4280
 8.8190	 3.4740
 8.8340	 3.3970
 8.8490	 3.5100
 8.8640	 3.4310
 8.8790	 3.4370
 8.8940	 3.3430
 8.9100	 3.4170
 8.9250	 3.4000
 8.9400	 3.4880
 8.9560	 3.3760
 8.9710	 3.4810
 8.9870	 3.4160
 9.0020	 3.4900
 9.0180	 3.4250
 9.0340	 3.5190
 9.0500	 3.4640
 9.0650	 3.5900
 9.0810	 3.6400
 9.0970	 3.6890
 9.1130	 3.5050
 9.1290	 3.5800
 9.1450	 3.5860
 9.1620	 3.6600
 9.1780	 3.5880
 9.1940	 3.6260
 9.2100	 3.5400
 9.2270	 3.6200
 9.2430	 3.5580
 9.2600	 3.6590
 9.2760	 3.6650
 9.2930	 3.7140
 9.3100	 3.5870
 9.3260	 3.7080
 9.3430	 3.5980
 9.3600	 3.5790
 9.3770	 3.5420
 9.3940	 3.7510
 9.4110	 3.7300
 9.4280	 3.7640
 9.4450	 3.6630
 9.4620	 3.7500
 9.4800	 3.6800
 9.4970	 3.7710
 9.5150	 3.6550
 9.5320	 3.6940
 9.5500	 3.6120
 9.5670	 3.6980
 9.5850	 3.6480
 9.6030	 3.7290
 9.6200	 3.6110
 9.6380	 3.7130
 9.6560	 3.6670
 9.6740	 3.7500
 9.6920	 3.6520
 9.7110	 3.7230
 9.7290	 3.6570
 9.7470	 3.7420
 9.7650	 3.6740
 9.7840	 3.7210
 9.8020	 3.6370
 9.8210	 3.7440
 9.8390	 3.6270
 9.8580	 3.7400
 9.8770	 3.6740
 9.8960	 3.6980
 9.9150	 3.6120
 9.9340	 3.6650
 9.9530	 3.6060
 9.9720	 3.6950
 9.9910	 3.6180
10.0100	 3.7230
10.0300	 3.6200
10.0490	 3.6490
10.0690	 3.5650
10.0880	 3.6240
10.1080	 3.5420
10.1280	 3.6190
10.1480	 3.5250
10.1670	 3.6170
10.1870	 3.5980
10.2070	 3.6980
10.2280	 3.6210
10.2480	 3.6450
10.2680	 3.5210
10.2890	 3.6060
10.3090	 3.5320
10.3300	 3.6110
10.3500	 3.5880
10.3710	 3.6820
10.3920	 3.5420
10.4120	 3.5960
10.4330	 3.5620
10.4540	 3.6420
10.4760	 3.5770
10.4970	 3.6860
10.5180	 3.5870
10.5390	 3.6730
10.5610	 3.6090
10.5820	 3.6360
10.6040	 3.6120
10.6260	 3.7500
10.6480	 3.6620
10.6700	 3.6720
10.6920	 3.5150
10.7140	 3.5290
10.7360	 3.4390
10.7580	 3.6090
10.7800	 3.5440
10.8030	 3.6280
10.8250	 3.5160
10.8480	 3.5670
10.8710	 3.5080
10.8940	 3.6370
10.9170	 3.5620
10.9400	 3.5580
10.9630	 3.4390
10.9860	 3.5810
11.0090	 3.4730
11.0330	 3.5620
11.0560	 3.4180
11.0800	 3.4840
11.1040	 3.3760
11.1270	 3.4810
11.1510	 3.3710
11.1750	 3.4530
11.2000	 3.4420
11.2240	 3.5390
11.2480	 3.3520
11.2730	 3.4330
11.2970	 3.3880
11.3220	 3.5390
11.3470	 3.4320
11.3720	 3.5210
11.3970	 3.4260
11.4220	 3.4790
11.4470	 3.4000
11.4720	 3.5650
11.4980	 3.4530
11.5230	 3.6100
11.5490	 3.6090
11.5750	 3.6990
11.6000	 3.5220
11.6260	 3.6240
11.6530	 3.5070
11.6790	 3.5970
11.7050	 3.5500
11.7320	 3.6470
11.7580	 3.5480
11.7850	 3.6630
11.8120	 3.5890
11.8390	 3.7290
11.8660	 3.6700
11.8930	 3.8200
11.9200	 3.6800
11.9480	 3.7250
11.9760	 3.6640
12.0030	 3.8260
12.0310	 3.7140
12.0590	 3.8160
12.0870	 3.6800
12.1150	 3.8430
12.1440	 3.8170
12.1720	 4.0020
12.2010	 3.8440
12.2300	 3.9130
12.2590	 3.7710
12.2880	 3.8780
12.3170	 3.7830
12.3460	 3.9330
12.3760	 3.7670
12.4050	 3.9070
12.4350	 3.8350
12.4650	 3.9300
12.4950	 3.7090
12.5250	 3.8040
12.5550	 3.7530
12.5860	 3.9410
12.6170	 3.8320
12.6470	 3.8990
12.6780	 3.7040
12.7090	 3.8590
12.7410	 3.7470
12.7720	 3.8550
12.8030	 3.7170
12.8350	 3.7830
12.8670	 3.5750
12.8990	 3.7320
12.9310	 3.7070
12.9640	 3.8770
12.9960	 3.6600
13.0290	 3.7590
13.0610	 3.6410
13.0940	 3.7820
13.1280	 3.6050
13.1610	 3.7030
13.1940	 3.5470
13.2280	 3.6620
13.2620	 3.5140
13.2960	 3.6470
13.3300	 3.4550
13.3640	 3.6160
13.3990	 3.4370
13.4340	 3.5020
13.4690	 3.3240
13.5040	 3.3810
13.5390	 3.1050
13.5740	 3.2200
13.6100	 2.9410
13.6460	 2.8910
13.6820	 2.8470
13.7180	 3.3970
13.7540	 3.2690
13.7910	 3.3210
13.8280	 3.0760
13.8650	 3.3270
13.9020	 3.4080
13.9390	 3.8420
13.9770	 3.7080
14.0150	 3.8280
14.0530	 3.5970
14.0910	 3.6540
14.1290	 3.3020
14.1680	 3.4750
14.2070	 3.3230
14.2460	 3.4640
14.2850	 3.1170
14.3240	 3.3100
14.3640	 3.1140
14.4040	 3.2420
14.4440	 3.0500
14.4840	 3.2570
14.5250	 2.8700
14.5660	 3.0260
14.6070	 2.7660
14.6480	 3.0070
14.6900	 2.7410
14.7310	 3.0170
14.7730	 2.7190
14.8150	 2.9040
14.8580	 2.6270
14.9010	 2.8680
14.9440	 2.5310
14.9870	 2.9290
15.0300	 2.5770
15.0740	 2.9800
15.1180	 2.6350
15.1620	 2.9630
15.2060	 2.5250
15.2510	 2.7250
15.2960	 2.4210
15.3410	 2.9470
15.3870	 2.4540
