Name: Calocedrus decrruens 3
Type: vegetation
Class: Tree
Genus: Calocedrus
Species: decurrens
Sample No.: VH059
Owner: UCSB
Wavelength Range: TIR
Origin: 37.0443; -119.3026; WGS84
Collection Date: 4/20/2013
Description: Samples were collected as part of the HyspIRI Airborne Campaign. 48 individual plants were sampled in three times in 2013 - spring  summer  and fall. The name of the sample includes a 1  2  or 3 which references a different individual of the species. Samples were taken to JPL and processed within 48 hours of collection. The same leaves were processed in the Nicolet and then measured using the ASD.
Measurement: Hemispherical reflectance
First Column: X
Second Column: Y
X Units: Wavelength (micrometers)
Y Units: Reflectance (percentage)
First X Value: 2.501
Last X Value: 15.387
Number of X Values: 1737
Additional Information: vegetation.tree.calocedrus.decurrens.tir.vh059.ucsb.nicolet.ancillary.txt

 2.5010	 6.7840
 2.5030	 6.8940
 2.5040	 6.8560
 2.5050	 6.8420
 2.5060	 6.8300
 2.5070	 6.7660
 2.5090	 6.7530
 2.5100	 6.7460
 2.5110	 6.6980
 2.5120	 6.7020
 2.5140	 6.7200
 2.5150	 6.6000
 2.5160	 6.5540
 2.5170	 6.6320
 2.5180	 6.7390
 2.5200	 6.8170
 2.5210	 6.8350
 2.5220	 6.7500
 2.5230	 6.7330
 2.5250	 6.7710
 2.5260	 6.6790
 2.5270	 6.6430
 2.5280	 6.8400
 2.5290	 6.8500
 2.5310	 6.7000
 2.5320	 6.6470
 2.5330	 6.7560
 2.5340	 6.8220
 2.5360	 6.7570
 2.5370	 6.7600
 2.5380	 6.8240
 2.5390	 6.6960
 2.5410	 6.6230
 2.5420	 6.6350
 2.5430	 6.7190
 2.5440	 6.7600
 2.5460	 6.6990
 2.5470	 6.7960
 2.5480	 6.9850
 2.5490	 7.0280
 2.5510	 6.9290
 2.5520	 6.8560
 2.5530	 6.9040
 2.5540	 6.9050
 2.5560	 6.9240
 2.5570	 6.9580
 2.5580	 6.9910
 2.5590	 6.9870
 2.5610	 7.0510
 2.5620	 7.0240
 2.5630	 6.9350
 2.5640	 6.9120
 2.5660	 6.9290
 2.5670	 7.0260
 2.5680	 7.0670
 2.5700	 6.9610
 2.5710	 6.9110
 2.5720	 6.9240
 2.5730	 6.8860
 2.5750	 6.9080
 2.5760	 6.9430
 2.5770	 6.8170
 2.5790	 6.8030
 2.5800	 6.8380
 2.5810	 6.8620
 2.5820	 6.9230
 2.5840	 6.9350
 2.5850	 6.8290
 2.5860	 6.8250
 2.5880	 6.8430
 2.5890	 6.9470
 2.5900	 7.0010
 2.5910	 6.9220
 2.5930	 6.8900
 2.5940	 6.8620
 2.5950	 6.7780
 2.5970	 6.8630
 2.5980	 6.9030
 2.5990	 6.7540
 2.6000	 6.7240
 2.6020	 6.7940
 2.6030	 6.8150
 2.6040	 6.7770
 2.6060	 6.7330
 2.6070	 6.7660
 2.6080	 6.8330
 2.6100	 6.7380
 2.6110	 6.6330
 2.6120	 6.5740
 2.6140	 6.5610
 2.6150	 6.6340
 2.6160	 6.6400
 2.6180	 6.5750
 2.6190	 6.5020
 2.6200	 6.4900
 2.6220	 6.5740
 2.6230	 6.5730
 2.6240	 6.4700
 2.6260	 6.4610
 2.6270	 6.4330
 2.6280	 6.5120
 2.6300	 6.4520
 2.6310	 6.3250
 2.6320	 6.3370
 2.6340	 6.3810
 2.6350	 6.2960
 2.6360	 6.2190
 2.6380	 6.0990
 2.6390	 6.1620
 2.6400	 6.1660
 2.6420	 6.0680
 2.6430	 6.0280
 2.6440	 6.0400
 2.6460	 5.9700
 2.6470	 5.9440
 2.6480	 5.9190
 2.6500	 5.8670
 2.6510	 5.7900
 2.6520	 5.8780
 2.6540	 5.9780
 2.6550	 5.8980
 2.6560	 5.7300
 2.6580	 5.7380
 2.6590	 5.7620
 2.6610	 5.6730
 2.6620	 5.5930
 2.6630	 5.4760
 2.6650	 5.4960
 2.6660	 5.5760
 2.6670	 5.4240
 2.6690	 5.3370
 2.6700	 5.3300
 2.6720	 5.2450
 2.6730	 5.3140
 2.6740	 5.4570
 2.6760	 5.4500
 2.6770	 5.2940
 2.6780	 5.2290
 2.6800	 5.2320
 2.6810	 5.1630
 2.6830	 5.1230
 2.6840	 5.0670
 2.6850	 5.0680
 2.6870	 5.0890
 2.6880	 5.0290
 2.6900	 4.9290
 2.6910	 4.8300
 2.6920	 4.7560
 2.6940	 4.7180
 2.6950	 4.7300
 2.6970	 4.6710
 2.6980	 4.5680
 2.6990	 4.4180
 2.7010	 4.2490
 2.7020	 4.1850
 2.7040	 4.1560
 2.7050	 4.1020
 2.7060	 4.1220
 2.7080	 4.0840
 2.7090	 4.0490
 2.7110	 4.0850
 2.7120	 4.1430
 2.7130	 4.1380
 2.7150	 4.0410
 2.7160	 4.0380
 2.7180	 3.9750
 2.7190	 3.8470
 2.7210	 3.8220
 2.7220	 3.9020
 2.7230	 3.9490
 2.7250	 3.8490
 2.7260	 3.6930
 2.7280	 3.6640
 2.7290	 3.6800
 2.7310	 3.6430
 2.7320	 3.6330
 2.7330	 3.6590
 2.7350	 3.6680
 2.7360	 3.6340
 2.7380	 3.5180
 2.7390	 3.5100
 2.7410	 3.5420
 2.7420	 3.5120
 2.7440	 3.3800
 2.7450	 3.3670
 2.7470	 3.5020
 2.7480	 3.4640
 2.7490	 3.4170
 2.7510	 3.4880
 2.7520	 3.4740
 2.7540	 3.4650
 2.7550	 3.3540
 2.7570	 3.2770
 2.7580	 3.3550
 2.7600	 3.3840
 2.7610	 3.3470
 2.7630	 3.2640
 2.7640	 3.2510
 2.7660	 3.3250
 2.7670	 3.4290
 2.7680	 3.2980
 2.7700	 3.1410
 2.7710	 3.1950
 2.7730	 3.2650
 2.7740	 3.3330
 2.7760	 3.2980
 2.7770	 3.2090
 2.7790	 3.2230
 2.7800	 3.1890
 2.7820	 3.0850
 2.7830	 3.1880
 2.7850	 3.3030
 2.7860	 3.3380
 2.7880	 3.2670
 2.7890	 3.2830
 2.7910	 3.2020
 2.7920	 3.0930
 2.7940	 3.2220
 2.7950	 3.2710
 2.7970	 3.1620
 2.7980	 3.1020
 2.8000	 3.0810
 2.8010	 3.1100
 2.8030	 3.0820
 2.8040	 3.1240
 2.8060	 3.1190
 2.8070	 3.1640
 2.8090	 3.1910
 2.8110	 3.1920
 2.8120	 3.1850
 2.8140	 3.1270
 2.8150	 3.0650
 2.8170	 3.0590
 2.8180	 3.1020
 2.8200	 3.1370
 2.8210	 3.1560
 2.8230	 3.1730
 2.8240	 3.1230
 2.8260	 3.1170
 2.8270	 3.0450
 2.8290	 3.0070
 2.8300	 3.0590
 2.8320	 3.1060
 2.8340	 3.1150
 2.8350	 3.0980
 2.8370	 3.0660
 2.8380	 3.0980
 2.8400	 3.1410
 2.8410	 3.1280
 2.8430	 3.1230
 2.8440	 3.0050
 2.8460	 2.9120
 2.8480	 2.9910
 2.8490	 3.0290
 2.8510	 3.0580
 2.8520	 3.1110
 2.8540	 3.1630
 2.8550	 3.1680
 2.8570	 3.0890
 2.8590	 3.1070
 2.8600	 3.1610
 2.8620	 3.1350
 2.8630	 3.1600
 2.8650	 3.1890
 2.8660	 3.1200
 2.8680	 2.9570
 2.8700	 2.9570
 2.8710	 3.0430
 2.8730	 3.0790
 2.8740	 3.0470
 2.8760	 3.1330
 2.8780	 3.1900
 2.8790	 3.1390
 2.8810	 2.8970
 2.8820	 2.8600
 2.8840	 3.0680
 2.8860	 3.2450
 2.8870	 3.2140
 2.8890	 3.0490
 2.8900	 3.1130
 2.8920	 3.1580
 2.8940	 3.1170
 2.8950	 3.1530
 2.8970	 3.0750
 2.8980	 2.9770
 2.9000	 3.0040
 2.9020	 3.0880
 2.9030	 3.0860
 2.9050	 3.1720
 2.9070	 3.1490
 2.9080	 3.2080
 2.9100	 3.1980
 2.9120	 3.1550
 2.9130	 3.1580
 2.9150	 3.1930
 2.9160	 3.1990
 2.9180	 3.2230
 2.9200	 3.0950
 2.9210	 3.2060
 2.9230	 3.1740
 2.9250	 3.0410
 2.9260	 3.0410
 2.9280	 3.1390
 2.9300	 3.0910
 2.9310	 3.1090
 2.9330	 3.0630
 2.9350	 3.0590
 2.9360	 3.1620
 2.9380	 3.1590
 2.9400	 3.1560
 2.9410	 3.2180
 2.9430	 3.2380
 2.9450	 3.0910
 2.9460	 3.0690
 2.9480	 3.1090
 2.9500	 3.0160
 2.9510	 2.9240
 2.9530	 2.9190
 2.9550	 2.9740
 2.9560	 3.0760
 2.9580	 3.0100
 2.9600	 3.2850
 2.9610	 3.5630
 2.9630	 3.2660
 2.9650	 3.0830
 2.9660	 3.0760
 2.9680	 2.9200
 2.9700	 3.0200
 2.9720	 3.4060
 2.9730	 3.8440
 2.9750	 3.8810
 2.9770	 4.4480
 2.9780	 4.3790
 2.9800	 3.7720
 2.9820	 3.6380
 2.9840	 3.5680
 2.9850	 3.5480
 2.9870	 3.1110
 2.9890	 3.0280
 2.9900	 3.3980
 2.9920	 3.4050
 2.9940	 3.2010
 2.9960	 3.1600
 2.9970	 2.9050
 2.9990	 2.8170
 3.0010	 2.9490
 3.0030	 3.0290
 3.0040	 3.0290
 3.0060	 3.1220
 3.0080	 3.4510
 3.0100	 3.3490
 3.0110	 3.1140
 3.0130	 3.4570
 3.0150	 3.6050
 3.0170	 3.4870
 3.0180	 3.3530
 3.0200	 3.4580
 3.0220	 3.4990
 3.0240	 3.3420
 3.0250	 3.2470
 3.0270	 3.2350
 3.0290	 3.1900
 3.0310	 3.3510
 3.0320	 3.4330
 3.0340	 3.4450
 3.0360	 3.3810
 3.0380	 3.1930
 3.0400	 2.9780
 3.0410	 2.9190
 3.0430	 2.8540
 3.0450	 3.0260
 3.0470	 2.8610
 3.0480	 2.9600
 3.0500	 3.1570
 3.0520	 3.1010
 3.0540	 3.1670
 3.0560	 3.0660
 3.0570	 3.1260
 3.0590	 3.0500
 3.0610	 2.8980
 3.0630	 3.2650
 3.0650	 3.0460
 3.0660	 2.9520
 3.0680	 3.1670
 3.0700	 3.2580
 3.0720	 3.2140
 3.0740	 3.2970
 3.0760	 3.2060
 3.0770	 3.1550
 3.0790	 3.2490
 3.0810	 3.2240
 3.0830	 3.1560
 3.0850	 3.1780
 3.0870	 3.1610
 3.0880	 3.2610
 3.0900	 3.2560
 3.0920	 3.1650
 3.0940	 3.1880
 3.0960	 3.1910
 3.0980	 3.0560
 3.0990	 2.9370
 3.1010	 3.0150
 3.1030	 3.2590
 3.1050	 3.3740
 3.1070	 3.2140
 3.1090	 3.1370
 3.1110	 3.2760
 3.1120	 3.3040
 3.1140	 3.1780
 3.1160	 3.1810
 3.1180	 3.2220
 3.1200	 3.0980
 3.1220	 3.1520
 3.1240	 3.2900
 3.1260	 3.2620
 3.1270	 3.1760
 3.1290	 3.2060
 3.1310	 3.1650
 3.1330	 3.0280
 3.1350	 3.0140
 3.1370	 3.1660
 3.1390	 3.2790
 3.1410	 3.0890
 3.1430	 2.9410
 3.1450	 3.0760
 3.1460	 3.2460
 3.1480	 3.0880
 3.1500	 2.9310
 3.1520	 2.9640
 3.1540	 2.9450
 3.1560	 3.0300
 3.1580	 3.1720
 3.1600	 3.1410
 3.1620	 3.2530
 3.1640	 3.3930
 3.1660	 3.0130
 3.1680	 2.9680
 3.1700	 3.3760
 3.1710	 3.5060
 3.1730	 3.2290
 3.1750	 2.9570
 3.1770	 2.8350
 3.1790	 3.0560
 3.1810	 3.1290
 3.1830	 3.2690
 3.1850	 3.2260
 3.1870	 3.1300
 3.1890	 3.1260
 3.1910	 3.1060
 3.1930	 3.2030
 3.1950	 3.2640
 3.1970	 3.2070
 3.1990	 3.2130
 3.2010	 3.2780
 3.2030	 3.2690
 3.2050	 3.0890
 3.2070	 3.1120
 3.2090	 3.2440
 3.2110	 3.2260
 3.2130	 3.1900
 3.2150	 3.1870
 3.2170	 3.1460
 3.2190	 3.1740
 3.2210	 3.0690
 3.2230	 3.0350
 3.2250	 3.1040
 3.2270	 3.1380
 3.2290	 3.1280
 3.2310	 3.1540
 3.2330	 3.1300
 3.2350	 3.1630
 3.2370	 3.1960
 3.2390	 3.1690
 3.2410	 3.0720
 3.2430	 3.0280
 3.2450	 3.0920
 3.2470	 3.1860
 3.2490	 3.2180
 3.2510	 3.1930
 3.2530	 3.1310
 3.2550	 2.9780
 3.2570	 2.9160
 3.2590	 3.1350
 3.2610	 3.2490
 3.2630	 3.1360
 3.2650	 2.9750
 3.2670	 3.0140
 3.2690	 3.1270
 3.2720	 3.0870
 3.2740	 3.0380
 3.2760	 3.0960
 3.2780	 3.0820
 3.2800	 3.0400
 3.2820	 3.0540
 3.2840	 2.9310
 3.2860	 2.8800
 3.2880	 3.0220
 3.2900	 3.0550
 3.2920	 3.0330
 3.2940	 3.1060
 3.2960	 3.1550
 3.2990	 3.0840
 3.3010	 3.0520
 3.3030	 3.0530
 3.3050	 3.0250
 3.3070	 3.0740
 3.3090	 3.1400
 3.3110	 3.0880
 3.3130	 3.0840
 3.3150	 3.1040
 3.3180	 3.1600
 3.3200	 3.1160
 3.3220	 3.0180
 3.3240	 3.0230
 3.3260	 3.0700
 3.3280	 3.0220
 3.3300	 2.9930
 3.3330	 2.9640
 3.3350	 3.0710
 3.3370	 3.1240
 3.3390	 3.0470
 3.3410	 2.9730
 3.3430	 2.9820
 3.3450	 2.9330
 3.3480	 2.9240
 3.3500	 2.8240
 3.3520	 2.8170
 3.3540	 2.8390
 3.3560	 2.8320
 3.3580	 2.7690
 3.3610	 2.7450
 3.3630	 2.7840
 3.3650	 2.7550
 3.3670	 2.6710
 3.3690	 2.7150
 3.3720	 2.7790
 3.3740	 2.7550
 3.3760	 2.5990
 3.3780	 2.5570
 3.3800	 2.6580
 3.3830	 2.6130
 3.3850	 2.4540
 3.3870	 2.4940
 3.3890	 2.5350
 3.3910	 2.5230
 3.3940	 2.5220
 3.3960	 2.4880
 3.3980	 2.5030
 3.4000	 2.5110
 3.4020	 2.5340
 3.4050	 2.5580
 3.4070	 2.5780
 3.4090	 2.6360
 3.4110	 2.7360
 3.4140	 2.8800
 3.4160	 3.0060
 3.4180	 3.1600
 3.4200	 3.3190
 3.4230	 3.6020
 3.4250	 4.0700
 3.4270	 4.4670
 3.4290	 4.6540
 3.4320	 4.6310
 3.4340	 4.4320
 3.4360	 4.3060
 3.4390	 4.2640
 3.4410	 4.1650
 3.4430	 3.9490
 3.4450	 3.8290
 3.4480	 3.8310
 3.4500	 3.7950
 3.4520	 3.7460
 3.4550	 3.7260
 3.4570	 3.6910
 3.4590	 3.5850
 3.4620	 3.5670
 3.4640	 3.5980
 3.4660	 3.6090
 3.4680	 3.6190
 3.4710	 3.5730
 3.4730	 3.5790
 3.4750	 3.5850
 3.4780	 3.5220
 3.4800	 3.3990
 3.4820	 3.3540
 3.4850	 3.3350
 3.4870	 3.3250
 3.4890	 3.3040
 3.4920	 3.2460
 3.4940	 3.1710
 3.4970	 3.0940
 3.4990	 3.1170
 3.5010	 3.2040
 3.5040	 3.2860
 3.5060	 3.6110
 3.5080	 4.1730
 3.5110	 4.6830
 3.5130	 4.7990
 3.5160	 4.5820
 3.5180	 4.3940
 3.5200	 4.3100
 3.5230	 4.2260
 3.5250	 4.1510
 3.5270	 4.0660
 3.5300	 4.0500
 3.5320	 4.0280
 3.5350	 4.0090
 3.5370	 4.0030
 3.5400	 3.9550
 3.5420	 3.8860
 3.5440	 3.9190
 3.5470	 3.9470
 3.5490	 3.9440
 3.5520	 3.8980
 3.5540	 3.8640
 3.5570	 3.8380
 3.5590	 3.9210
 3.5610	 3.8830
 3.5640	 3.7980
 3.5660	 3.8660
 3.5690	 3.9010
 3.5710	 3.8060
 3.5740	 3.8380
 3.5760	 3.8290
 3.5790	 3.7620
 3.5810	 3.7440
 3.5840	 3.8220
 3.5860	 3.9280
 3.5890	 3.9190
 3.5910	 3.8670
 3.5930	 3.8870
 3.5960	 3.8610
 3.5980	 3.7800
 3.6010	 3.7350
 3.6030	 3.7600
 3.6060	 3.7620
 3.6080	 3.7940
 3.6110	 3.8980
 3.6140	 3.8830
 3.6160	 3.7810
 3.6190	 3.8370
 3.6210	 3.9030
 3.6240	 3.9060
 3.6260	 3.8720
 3.6290	 3.8070
 3.6310	 3.8250
 3.6340	 3.8400
 3.6360	 3.8220
 3.6390	 3.8080
 3.6410	 3.8540
 3.6440	 3.8880
 3.6470	 3.8200
 3.6490	 3.8420
 3.6520	 3.8510
 3.6540	 3.7990
 3.6570	 3.8260
 3.6590	 3.8680
 3.6620	 3.8310
 3.6650	 3.8200
 3.6670	 3.8130
 3.6700	 3.7510
 3.6720	 3.6880
 3.6750	 3.7900
 3.6780	 3.8510
 3.6800	 3.8500
 3.6830	 3.8230
 3.6850	 3.7490
 3.6880	 3.7780
 3.6910	 3.8370
 3.6930	 3.8480
 3.6960	 3.8650
 3.6990	 3.9090
 3.7010	 3.9090
 3.7040	 3.8820
 3.7060	 3.8990
 3.7090	 3.8500
 3.7120	 3.8220
 3.7140	 3.8090
 3.7170	 3.8000
 3.7200	 3.7890
 3.7220	 3.8160
 3.7250	 3.8230
 3.7280	 3.8290
 3.7300	 3.8940
 3.7330	 3.9130
 3.7360	 3.9120
 3.7390	 3.9710
 3.7410	 3.9860
 3.7440	 3.9040
 3.7470	 3.8380
 3.7490	 3.8850
 3.7520	 3.9750
 3.7550	 3.9830
 3.7580	 3.9720
 3.7600	 3.9230
 3.7630	 3.8540
 3.7660	 3.8330
 3.7680	 3.8380
 3.7710	 3.8750
 3.7740	 3.9670
 3.7770	 4.0220
 3.7790	 3.9750
 3.7820	 3.9250
 3.7850	 3.9240
 3.7880	 3.9430
 3.7900	 3.9910
 3.7930	 4.0010
 3.7960	 3.9590
 3.7990	 3.9630
 3.8020	 3.9660
 3.8040	 3.9670
 3.8070	 3.9600
 3.8100	 4.0040
 3.8130	 4.0300
 3.8160	 3.9920
 3.8180	 3.9850
 3.8210	 4.0180
 3.8240	 4.0210
 3.8270	 4.0530
 3.8300	 4.0830
 3.8330	 4.1110
 3.8350	 4.1630
 3.8380	 4.1220
 3.8410	 4.0340
 3.8440	 3.9850
 3.8470	 4.0440
 3.8500	 4.1070
 3.8520	 4.0780
 3.8550	 4.0580
 3.8580	 4.0830
 3.8610	 4.0750
 3.8640	 4.0920
 3.8670	 4.1730
 3.8700	 4.1740
 3.8730	 4.1080
 3.8750	 4.0580
 3.8780	 4.0720
 3.8810	 4.0860
 3.8840	 4.0840
 3.8870	 4.1350
 3.8900	 4.1870
 3.8930	 4.1970
 3.8960	 4.1570
 3.8990	 4.1480
 3.9020	 4.1500
 3.9050	 4.1050
 3.9080	 4.0730
 3.9110	 4.1100
 3.9140	 4.0880
 3.9160	 4.1340
 3.9190	 4.1730
 3.9220	 4.1200
 3.9250	 4.1270
 3.9280	 4.1360
 3.9310	 4.1380
 3.9340	 4.1480
 3.9370	 4.1670
 3.9400	 4.1690
 3.9430	 4.2010
 3.9460	 4.2020
 3.9490	 4.1500
 3.9520	 4.1520
 3.9550	 4.2320
 3.9580	 4.3120
 3.9610	 4.2650
 3.9640	 4.1980
 3.9670	 4.1950
 3.9700	 4.2150
 3.9730	 4.1800
 3.9770	 4.2380
 3.9800	 4.2360
 3.9830	 4.2060
 3.9860	 4.2790
 3.9890	 4.3060
 3.9920	 4.2370
 3.9950	 4.2260
 3.9980	 4.2150
 4.0010	 4.2650
 4.0040	 4.3270
 4.0070	 4.2820
 4.0100	 4.1700
 4.0130	 4.1580
 4.0170	 4.2620
 4.0200	 4.3390
 4.0230	 4.2910
 4.0260	 4.2820
 4.0290	 4.3330
 4.0320	 4.3310
 4.0350	 4.3330
 4.0380	 4.3250
 4.0420	 4.2890
 4.0450	 4.2500
 4.0480	 4.2550
 4.0510	 4.2870
 4.0540	 4.2720
 4.0570	 4.2550
 4.0610	 4.3240
 4.0640	 4.3690
 4.0670	 4.3580
 4.0700	 4.3510
 4.0730	 4.3610
 4.0770	 4.3830
 4.0800	 4.3160
 4.0830	 4.2650
 4.0860	 4.2920
 4.0890	 4.2970
 4.0930	 4.3090
 4.0960	 4.3770
 4.0990	 4.4070
 4.1020	 4.3790
 4.1060	 4.3420
 4.1090	 4.3150
 4.1120	 4.2700
 4.1150	 4.2670
 4.1190	 4.3260
 4.1220	 4.3430
 4.1250	 4.3040
 4.1280	 4.3170
 4.1320	 4.3830
 4.1350	 4.4050
 4.1380	 4.3870
 4.1420	 4.3790
 4.1450	 4.3590
 4.1480	 4.3410
 4.1520	 4.3600
 4.1550	 4.3550
 4.1580	 4.3130
 4.1620	 4.3540
 4.1650	 4.3960
 4.1680	 4.3990
 4.1720	 4.3720
 4.1750	 4.4170
 4.1780	 4.3560
 4.1820	 4.2740
 4.1850	 4.2810
 4.1890	 4.3200
 4.1920	 4.3330
 4.1950	 4.4230
 4.1990	 4.4490
 4.2020	 4.5260
 4.2060	 4.6240
 4.2090	 4.6970
 4.2120	 4.6670
 4.2160	 4.7940
 4.2190	 4.9270
 4.2230	 5.0890
 4.2260	 5.1040
 4.2300	 5.2140
 4.2330	 5.3050
 4.2360	 5.4780
 4.2400	 5.2950
 4.2430	 5.1750
 4.2470	 5.1120
 4.2500	 5.0130
 4.2540	 4.7600
 4.2570	 4.6410
 4.2610	 4.7430
 4.2640	 4.9710
 4.2680	 5.0310
 4.2710	 5.0090
 4.2750	 4.9710
 4.2780	 5.0970
 4.2820	 5.0340
 4.2850	 4.8260
 4.2890	 4.7690
 4.2930	 4.9530
 4.2960	 4.9240
 4.3000	 4.8590
 4.3030	 4.7330
 4.3070	 4.6810
 4.3100	 4.7320
 4.3140	 4.7270
 4.3180	 4.6140
 4.3210	 4.5800
 4.3250	 4.4170
 4.3280	 4.3330
 4.3320	 4.3470
 4.3360	 4.3590
 4.3390	 4.3470
 4.3430	 4.3420
 4.3470	 4.2930
 4.3500	 4.2750
 4.3540	 4.2290
 4.3570	 4.3230
 4.3610	 4.3000
 4.3650	 4.2110
 4.3680	 4.1810
 4.3720	 4.2200
 4.3760	 4.2510
 4.3800	 4.2520
 4.3830	 4.1650
 4.3870	 4.2000
 4.3910	 4.2250
 4.3940	 4.2230
 4.3980	 4.1700
 4.4020	 4.1260
 4.4060	 4.1370
 4.4090	 4.1770
 4.4130	 4.1650
 4.4170	 4.1610
 4.4210	 4.1420
 4.4240	 4.1300
 4.4280	 4.1450
 4.4320	 4.1260
 4.4360	 4.0310
 4.4400	 4.0600
 4.4430	 4.1460
 4.4470	 4.1280
 4.4510	 4.0760
 4.4550	 4.0710
 4.4590	 3.9790
 4.4620	 4.0440
 4.4660	 4.0830
 4.4700	 4.1060
 4.4740	 4.1160
 4.4780	 4.1500
 4.4820	 4.1070
 4.4860	 4.0740
 4.4900	 4.0430
 4.4930	 4.0190
 4.4970	 3.9940
 4.5010	 4.0170
 4.5050	 4.0430
 4.5090	 4.0590
 4.5130	 4.0040
 4.5170	 3.9640
 4.5210	 3.9560
 4.5250	 4.0090
 4.5290	 3.9910
 4.5330	 3.9730
 4.5370	 3.9720
 4.5410	 4.0020
 4.5450	 4.0030
 4.5490	 4.0350
 4.5530	 4.0090
 4.5570	 3.9500
 4.5610	 3.9270
 4.5650	 3.9230
 4.5690	 3.9050
 4.5730	 3.9510
 4.5770	 3.9400
 4.5810	 3.9610
 4.5850	 3.9150
 4.5890	 3.8950
 4.5930	 3.9310
 4.5970	 3.9490
 4.6010	 3.9410
 4.6050	 3.9390
 4.6090	 3.8290
 4.6130	 3.8880
 4.6170	 3.9400
 4.6220	 3.9390
 4.6260	 3.9130
 4.6300	 3.9390
 4.6340	 3.9310
 4.6380	 3.9790
 4.6420	 3.9430
 4.6460	 3.9130
 4.6510	 3.8670
 4.6550	 3.8290
 4.6590	 3.8040
 4.6630	 3.8160
 4.6670	 3.8230
 4.6720	 3.8440
 4.6760	 3.8000
 4.6800	 3.8090
 4.6840	 3.8630
 4.6880	 3.8600
 4.6930	 3.8390
 4.6970	 3.8710
 4.7010	 3.9210
 4.7050	 3.9180
 4.7100	 3.8550
 4.7140	 3.8700
 4.7180	 3.8770
 4.7230	 3.9270
 4.7270	 3.8940
 4.7310	 3.8950
 4.7360	 3.8490
 4.7400	 3.8260
 4.7440	 3.8410
 4.7490	 3.8370
 4.7530	 3.7460
 4.7570	 3.7750
 4.7620	 3.8080
 4.7660	 3.8440
 4.7700	 3.8070
 4.7750	 3.8050
 4.7790	 3.7720
 4.7840	 3.8140
 4.7880	 3.8590
 4.7920	 3.8540
 4.7970	 3.8350
 4.8010	 3.9310
 4.8060	 3.9330
 4.8100	 3.9260
 4.8150	 3.8320
 4.8190	 3.8280
 4.8240	 3.8210
 4.8280	 3.8250
 4.8330	 3.8330
 4.8370	 3.8870
 4.8420	 3.8450
 4.8460	 3.8310
 4.8510	 3.8430
 4.8550	 3.8810
 4.8600	 3.8860
 4.8640	 3.9120
 4.8690	 3.9230
 4.8730	 3.9610
 4.8780	 3.8630
 4.8830	 3.8320
 4.8870	 3.8060
 4.8920	 3.8470
 4.8960	 3.8520
 4.9010	 3.8470
 4.9060	 3.8420
 4.9100	 3.8900
 4.9150	 3.8600
 4.9200	 3.9220
 4.9240	 3.8440
 4.9290	 3.7960
 4.9340	 3.8340
 4.9380	 3.8820
 4.9430	 3.9220
 4.9480	 4.0060
 4.9530	 3.9320
 4.9570	 3.9590
 4.9620	 3.9280
 4.9670	 3.9010
 4.9720	 3.8760
 4.9760	 3.9000
 4.9810	 3.8570
 4.9860	 3.8870
 4.9910	 3.9480
 4.9960	 3.9920
 5.0000	 3.9250
 5.0050	 3.9120
 5.0100	 3.8690
 5.0150	 3.8960
 5.0200	 3.9160
 5.0250	 3.9480
 5.0290	 3.9370
 5.0340	 3.9400
 5.0390	 3.8950
 5.0440	 3.9810
 5.0490	 4.0060
 5.0540	 3.9640
 5.0590	 3.9180
 5.0640	 3.9760
 5.0690	 3.9550
 5.0740	 3.9780
 5.0790	 3.9500
 5.0840	 3.9240
 5.0890	 3.9200
 5.0940	 3.9300
 5.0990	 3.8850
 5.1040	 3.8560
 5.1090	 3.8800
 5.1140	 3.9880
 5.1190	 3.9850
 5.1240	 3.9910
 5.1290	 3.9100
 5.1340	 3.9280
 5.1390	 3.9480
 5.1440	 3.9590
 5.1490	 3.9250
 5.1540	 4.0030
 5.1600	 3.9510
 5.1650	 3.9370
 5.1700	 3.9030
 5.1750	 3.9600
 5.1800	 3.9580
 5.1850	 3.9650
 5.1910	 3.9490
 5.1960	 3.9550
 5.2010	 3.9560
 5.2060	 3.9790
 5.2110	 3.8980
 5.2170	 3.8840
 5.2220	 3.8990
 5.2270	 3.9830
 5.2320	 3.9920
 5.2380	 4.0190
 5.2430	 3.9550
 5.2480	 3.9800
 5.2540	 3.9210
 5.2590	 3.9150
 5.2640	 3.9250
 5.2700	 3.9220
 5.2750	 3.8680
 5.2800	 3.9070
 5.2860	 3.9520
 5.2910	 3.9640
 5.2970	 3.8590
 5.3020	 3.9040
 5.3070	 3.9740
 5.3130	 3.9400
 5.3180	 3.8160
 5.3240	 3.8580
 5.3290	 3.8010
 5.3350	 3.8410
 5.3400	 3.8770
 5.3460	 3.9230
 5.3510	 3.8710
 5.3570	 3.8640
 5.3620	 3.8440
 5.3680	 3.8600
 5.3730	 3.8150
 5.3790	 3.8210
 5.3850	 3.8170
 5.3900	 3.7950
 5.3960	 3.7010
 5.4010	 3.7420
 5.4070	 3.7840
 5.4130	 3.7860
 5.4180	 3.7020
 5.4240	 3.6910
 5.4300	 3.6570
 5.4350	 3.6950
 5.4410	 3.7390
 5.4470	 3.7610
 5.4530	 3.6630
 5.4580	 3.6440
 5.4640	 3.6530
 5.4700	 3.6590
 5.4760	 3.5810
 5.4810	 3.5920
 5.4870	 3.6340
 5.4930	 3.6670
 5.4990	 3.6040
 5.5050	 3.5840
 5.5110	 3.5060
 5.5160	 3.5100
 5.5220	 3.4790
 5.5280	 3.4640
 5.5340	 3.3780
 5.5400	 3.4060
 5.5460	 3.4000
 5.5520	 3.4060
 5.5580	 3.3130
 5.5640	 3.2740
 5.5700	 3.2040
 5.5760	 3.2110
 5.5820	 3.1940
 5.5880	 3.2190
 5.5940	 3.1390
 5.6000	 3.1790
 5.6060	 3.1390
 5.6120	 3.0720
 5.6180	 3.0090
 5.6240	 3.0600
 5.6300	 2.9830
 5.6360	 2.9470
 5.6420	 2.9020
 5.6490	 2.9200
 5.6550	 2.8290
 5.6610	 2.7800
 5.6670	 2.7070
 5.6730	 2.6710
 5.6800	 2.6080
 5.6860	 2.5620
 5.6920	 2.4430
 5.6980	 2.4350
 5.7040	 2.3600
 5.7110	 2.2950
 5.7170	 2.1440
 5.7230	 2.0180
 5.7300	 1.8900
 5.7360	 1.9410
 5.7420	 2.0100
 5.7490	 2.1650
 5.7550	 2.4920
 5.7620	 3.0960
 5.7680	 3.5770
 5.7740	 3.8990
 5.7810	 4.0000
 5.7870	 4.0440
 5.7940	 3.9040
 5.8000	 3.7750
 5.8070	 3.5690
 5.8130	 3.5210
 5.8200	 3.3920
 5.8260	 3.3460
 5.8330	 3.3820
 5.8390	 3.5010
 5.8460	 3.4990
 5.8530	 3.4790
 5.8590	 3.3380
 5.8660	 3.4500
 5.8720	 3.4620
 5.8790	 3.4400
 5.8860	 3.4320
 5.8920	 3.5010
 5.8990	 3.4240
 5.9060	 3.4680
 5.9130	 3.4050
 5.9190	 3.5060
 5.9260	 3.5680
 5.9330	 3.5900
 5.9400	 3.4950
 5.9470	 3.5400
 5.9530	 3.5060
 5.9600	 3.5730
 5.9670	 3.5710
 5.9740	 3.5910
 5.9810	 3.5420
 5.9880	 3.5980
 5.9950	 3.5110
 6.0020	 3.4830
 6.0090	 3.4490
 6.0160	 3.5230
 6.0230	 3.4660
 6.0300	 3.5490
 6.0370	 3.5140
 6.0440	 3.5170
 6.0510	 3.5190
 6.0580	 3.5810
 6.0650	 3.5370
 6.0720	 3.5510
 6.0790	 3.4920
 6.0860	 3.5640
 6.0930	 3.5750
 6.1000	 3.7250
 6.1080	 3.6820
 6.1150	 3.6520
 6.1220	 3.6590
 6.1290	 3.8210
 6.1370	 3.7880
 6.1440	 3.8420
 6.1510	 3.8660
 6.1580	 3.9410
 6.1660	 3.9190
 6.1730	 3.9540
 6.1800	 3.9270
 6.1880	 3.9740
 6.1950	 3.8130
 6.2030	 3.7710
 6.2100	 3.7820
 6.2170	 3.8290
 6.2250	 3.7150
 6.2320	 3.7720
 6.2400	 3.7120
 6.2470	 3.6950
 6.2550	 3.6990
 6.2630	 3.6690
 6.2700	 3.4940
 6.2780	 3.5660
 6.2850	 3.5190
 6.2930	 3.5540
 6.3010	 3.4780
 6.3080	 3.5230
 6.3160	 3.5060
 6.3240	 3.5800
 6.3310	 3.4840
 6.3390	 3.4610
 6.3470	 3.3590
 6.3550	 3.3890
 6.3620	 3.3830
 6.3700	 3.4950
 6.3780	 3.4850
 6.3860	 3.4590
 6.3940	 3.2840
 6.4020	 3.3650
 6.4100	 3.3970
 6.4180	 3.4450
 6.4260	 3.3740
 6.4330	 3.4480
 6.4410	 3.4180
 6.4490	 3.3730
 6.4580	 3.3400
 6.4660	 3.3840
 6.4740	 3.2760
 6.4820	 3.2720
 6.4900	 3.1640
 6.4980	 3.2200
 6.5060	 3.1500
 6.5140	 3.2100
 6.5230	 3.1650
 6.5310	 3.1230
 6.5390	 3.1410
 6.5470	 3.2070
 6.5550	 3.1010
 6.5640	 3.1560
 6.5720	 3.1260
 6.5800	 3.1780
 6.5890	 3.1080
 6.5970	 3.1090
 6.6060	 3.0730
 6.6140	 3.1480
 6.6220	 3.0920
 6.6310	 3.1320
 6.6390	 3.0390
 6.6480	 3.0920
 6.6560	 3.0240
 6.6650	 3.0190
 6.6740	 2.9980
 6.6820	 3.0430
 6.6910	 3.0190
 6.6990	 3.1510
 6.7080	 3.0720
 6.7170	 3.0290
 6.7260	 2.8450
 6.7340	 2.8790
 6.7430	 2.8510
 6.7520	 2.8870
 6.7610	 2.8470
 6.7690	 2.8200
 6.7780	 2.7950
 6.7870	 2.9570
 6.7960	 2.9810
 6.8050	 3.0360
 6.8140	 2.9850
 6.8230	 3.1050
 6.8320	 3.2180
 6.8410	 3.4090
 6.8500	 3.3400
 6.8590	 3.2900
 6.8680	 3.1610
 6.8770	 3.2380
 6.8860	 3.1750
 6.8950	 3.2490
 6.9050	 3.1980
 6.9140	 3.1910
 6.9230	 3.1330
 6.9320	 3.1860
 6.9420	 3.1040
 6.9510	 3.1500
 6.9600	 3.0090
 6.9700	 3.0450
 6.9790	 3.0150
 6.9880	 3.1170
 6.9980	 2.9920
 7.0070	 3.0090
 7.0170	 3.0300
 7.0260	 3.1100
 7.0360	 3.0540
 7.0450	 3.1270
 7.0550	 3.0620
 7.0650	 3.1290
 7.0740	 3.1430
 7.0840	 3.2210
 7.0940	 3.1670
 7.1030	 3.1890
 7.1130	 3.1220
 7.1230	 3.2090
 7.1330	 3.1310
 7.1420	 3.1960
 7.1520	 3.0960
 7.1620	 3.1060
 7.1720	 3.0790
 7.1820	 3.1520
 7.1920	 3.0690
 7.2020	 3.1320
 7.2120	 3.0410
 7.2220	 3.0950
 7.2320	 3.0350
 7.2420	 3.1620
 7.2520	 3.0970
 7.2620	 3.1060
 7.2730	 3.0840
 7.2830	 3.0910
 7.2930	 2.9510
 7.3030	 3.0470
 7.3140	 2.9760
 7.3240	 2.9800
 7.3340	 2.9340
 7.3450	 3.0340
 7.3550	 2.9770
 7.3660	 3.0700
 7.3760	 3.0170
 7.3870	 3.0930
 7.3970	 2.9820
 7.4080	 3.0330
 7.4180	 3.0260
 7.4290	 3.0780
 7.4400	 2.9350
 7.4500	 2.9780
 7.4610	 3.0150
 7.4720	 3.1010
 7.4830	 2.9770
 7.4930	 2.9920
 7.5040	 2.9930
 7.5150	 3.1110
 7.5260	 3.0170
 7.5370	 3.1100
 7.5480	 3.1280
 7.5590	 3.2440
 7.5700	 3.2610
 7.5810	 3.4360
 7.5920	 3.3590
 7.6030	 3.4220
 7.6140	 3.3990
 7.6260	 3.3810
 7.6370	 3.2010
 7.6480	 3.2390
 7.6590	 3.1690
 7.6710	 3.2670
 7.6820	 3.1650
 7.6930	 3.2120
 7.7050	 3.1110
 7.7160	 3.1060
 7.7280	 3.0600
 7.7390	 3.1060
 7.7510	 3.0000
 7.7630	 3.0160
 7.7740	 2.8980
 7.7860	 2.9620
 7.7980	 2.8840
 7.8090	 3.0180
 7.8210	 2.9190
 7.8330	 2.9540
 7.8450	 2.8720
 7.8570	 2.9750
 7.8690	 2.8870
 7.8810	 2.9290
 7.8930	 2.8890
 7.9050	 3.0560
 7.9170	 3.0040
 7.9290	 3.0420
 7.9410	 2.9600
 7.9530	 2.9610
 7.9650	 2.9020
 7.9780	 3.0410
 7.9900	 2.9180
 8.0020	 2.9530
 8.0150	 2.9090
 8.0270	 3.0210
 8.0390	 2.9290
 8.0520	 2.9580
 8.0640	 2.8790
 8.0770	 3.0220
 8.0900	 2.8710
 8.1020	 3.0150
 8.1150	 3.0040
 8.1280	 3.1000
 8.1400	 2.9950
 8.1530	 3.1660
 8.1660	 3.0200
 8.1790	 3.0020
 8.1920	 2.9270
 8.2050	 3.0710
 8.2180	 2.8590
 8.2310	 3.0150
 8.2440	 2.9490
 8.2570	 3.0810
 8.2700	 2.9850
 8.2830	 3.0950
 8.2970	 3.0480
 8.3100	 3.1060
 8.3230	 2.9950
 8.3370	 3.1290
 8.3500	 3.1060
 8.3640	 3.1350
 8.3770	 2.9860
 8.3910	 3.1570
 8.4040	 3.0860
 8.4180	 3.1480
 8.4320	 3.0210
 8.4450	 3.1960
 8.4590	 3.0770
 8.4730	 3.2060
 8.4870	 3.1470
 8.5010	 3.2200
 8.5150	 3.1120
 8.5290	 3.2130
 8.5430	 3.0540
 8.5570	 3.2130
 8.5710	 3.1920
 8.5850	 3.3360
 8.5990	 3.2730
 8.6140	 3.3800
 8.6280	 3.2790
 8.6420	 3.3580
 8.6570	 3.1910
 8.6710	 3.3430
 8.6860	 3.1600
 8.7000	 3.2630
 8.7150	 3.2610
 8.7300	 3.3940
 8.7440	 3.2110
 8.7590	 3.2710
 8.7740	 3.1960
 8.7890	 3.2920
 8.8040	 3.1650
 8.8190	 3.3440
 8.8340	 3.1400
 8.8490	 3.3060
 8.8640	 3.1870
 8.8790	 3.2830
 8.8940	 3.2460
 8.9100	 3.5380
 8.9250	 3.3970
 8.9400	 3.4560
 8.9560	 3.3050
 8.9710	 3.3960
 8.9870	 3.4090
 9.0020	 3.6130
 9.0180	 3.3900
 9.0340	 3.3690
 9.0500	 3.2380
 9.0650	 3.4380
 9.0810	 3.4300
 9.0970	 3.5950
 9.1130	 3.3530
 9.1290	 3.4100
 9.1450	 3.3630
 9.1610	 3.4910
 9.1780	 3.3180
 9.1940	 3.4230
 9.2100	 3.4070
 9.2270	 3.6350
 9.2430	 3.5250
 9.2600	 3.6330
 9.2760	 3.5020
 9.2930	 3.6450
 9.3090	 3.5130
 9.3260	 3.6310
 9.3430	 3.4420
 9.3600	 3.5030
 9.3770	 3.2910
 9.3940	 3.4240
 9.4110	 3.3480
 9.4280	 3.5170
 9.4450	 3.4100
 9.4620	 3.6040
 9.4800	 3.4910
 9.4970	 3.6910
 9.5140	 3.5090
 9.5320	 3.6260
 9.5500	 3.5100
 9.5670	 3.6800
 9.5850	 3.6190
 9.6030	 3.8670
 9.6200	 3.8000
 9.6380	 3.9140
 9.6560	 3.6730
 9.6740	 3.7890
 9.6920	 3.6920
 9.7100	 3.8080
 9.7290	 3.7070
 9.7470	 3.7510
 9.7650	 3.5200
 9.7840	 3.7290
 9.8020	 3.6100
 9.8210	 3.7600
 9.8390	 3.5940
 9.8580	 3.7190
 9.8770	 3.6450
 9.8960	 3.8030
 9.9150	 3.6620
 9.9340	 3.7570
 9.9530	 3.5880
 9.9720	 3.7860
 9.9910	 3.6110
10.0100	 3.6310
10.0300	 3.4610
10.0490	 3.5880
10.0690	 3.4370
10.0880	 3.4890
10.1080	 3.3570
10.1280	 3.4830
10.1480	 3.3500
10.1670	 3.5590
10.1870	 3.4130
10.2070	 3.4970
10.2280	 3.3460
10.2480	 3.4620
10.2680	 3.3620
10.2890	 3.5710
10.3090	 3.3180
10.3300	 3.3130
10.3500	 3.1860
10.3710	 3.3470
10.3920	 3.2850
10.4120	 3.4220
10.4330	 3.2620
10.4540	 3.3950
10.4760	 3.2540
10.4970	 3.3780
10.5180	 3.3350
10.5390	 3.4990
10.5610	 3.2790
10.5820	 3.3130
10.6040	 3.0960
10.6260	 3.2330
10.6480	 3.2560
10.6700	 3.4560
10.6920	 3.3270
10.7140	 3.4250
10.7360	 3.1220
10.7580	 3.2800
10.7800	 3.1840
10.8030	 3.3010
10.8250	 3.2520
10.8480	 3.4310
10.8710	 3.1460
10.8940	 3.3100
10.9170	 3.3240
10.9400	 3.5220
10.9630	 3.2880
10.9860	 3.4790
11.0090	 3.3040
11.0330	 3.3710
11.0560	 3.1910
11.0800	 3.3300
11.1040	 3.1380
11.1270	 3.2320
11.1510	 3.1290
11.1750	 3.3950
11.2000	 3.2520
11.2240	 3.3210
11.2480	 3.1450
11.2730	 3.3790
11.2970	 3.1210
11.3220	 3.2870
11.3470	 3.1540
11.3720	 3.2830
11.3970	 2.9790
11.4220	 3.1990
11.4470	 3.0350
11.4720	 3.1990
11.4980	 3.0020
11.5230	 3.2230
11.5490	 3.1840
11.5750	 3.2800
11.6000	 3.0680
11.6260	 3.3080
11.6530	 3.1090
11.6790	 3.1670
11.7050	 2.9920
11.7320	 3.2590
11.7580	 3.0410
11.7850	 3.2460
11.8120	 3.0670
11.8390	 3.1770
11.8660	 3.0560
11.8930	 3.2720
11.9200	 2.9860
11.9480	 3.1400
11.9760	 2.9550
12.0030	 3.0770
12.0310	 2.8070
12.0590	 2.9540
12.0870	 2.8340
12.1150	 3.1290
12.1440	 2.9860
12.1720	 3.2210
12.2010	 3.0380
12.2300	 3.1470
12.2590	 2.8950
12.2880	 3.1230
12.3170	 2.9260
12.3460	 3.2370
12.3760	 3.0530
12.4050	 3.1340
12.4350	 2.9230
12.4650	 3.1820
12.4950	 2.8770
12.5250	 3.0570
12.5550	 2.9660
12.5860	 3.3460
12.6170	 3.1420
12.6470	 3.2180
12.6780	 2.8910
12.7090	 3.2130
12.7410	 3.1620
12.7720	 3.5380
12.8030	 3.3090
12.8350	 3.4200
12.8670	 3.0950
12.8990	 3.1820
12.9310	 2.8500
12.9640	 3.0400
12.9960	 2.7770
13.0290	 3.0080
13.0610	 2.8270
13.0940	 3.0000
13.1280	 2.5060
13.1610	 2.6530
13.1940	 2.3930
13.2280	 2.7320
13.2620	 2.5210
13.2960	 2.9240
13.3300	 2.7750
13.3640	 2.9060
13.3990	 2.6660
13.4340	 2.9970
13.4690	 2.6310
13.5040	 2.7910
13.5390	 2.4280
13.5740	 2.6880
13.6100	 2.5740
13.6460	 2.9310
13.6820	 2.4370
13.7180	 2.8460
13.7540	 2.8100
13.7910	 3.1990
13.8280	 2.7740
13.8650	 3.2120
13.9020	 3.1090
13.9390	 3.3630
13.9770	 2.9810
14.0150	 3.2910
14.0530	 3.0020
14.0910	 3.4480
14.1290	 3.2110
14.1680	 3.4150
14.2070	 2.9400
14.2460	 3.4010
14.2850	 3.1060
14.3240	 3.4460
14.3640	 3.0310
14.4040	 3.2370
14.4440	 2.8150
14.4840	 3.4940
14.5250	 3.1540
14.5660	 3.5110
14.6070	 3.0410
14.6480	 3.5660
14.6900	 3.0100
14.7310	 3.4160
14.7730	 3.0010
14.8150	 3.2650
14.8580	 2.5130
14.9010	 3.1060
14.9440	 2.4000
14.9870	 3.2810
15.0300	 2.8330
15.0740	 3.0640
15.1180	 2.4280
15.1620	 3.1300
15.2060	 2.2920
15.2510	 2.6580
15.2960	 2.1440
15.3410	 3.3090
15.3870	 2.9440
