Name: Uvularia sessifolia
Type: Vegetation
Class: Tree
Genus: Uvularia
Species: sessifolia
Sample No.: UVSE-2-77
Owner: UCSB
Wavelength Range: TIR
Origin: USA; Massachusetts; Harvard Forest
Collection Date: 7/8/2013
Description: Samples were collected as part of NSF Macrosystem Biology proposal titled: Collaborative Research: Thermal controls on ecosystem metabolism and function: scaling from leaves to canopies to regions. Samples were collected and overnighted to JPL facilities for processing. The same leaves were processed in the Nicolet and then measured using the ASD.
Measurement: Hemispherical reflectance
First Column: X
Second Column: Y
X Units: Wavelength (micrometers)
Y Units: Reflectance (percentage)
First X Value: 2.501
Last X Value: 15.387
Number of X Values: 1737
Additional Information: vegetation.tree.uvularia.sessifolia.tir.uvse-2-77.ucsb.nicolet.ancillary.txt

 2.5010	 7.7200
 2.5030	 7.8020
 2.5040	 7.7970
 2.5050	 7.6890
 2.5060	 7.7170
 2.5070	 7.5640
 2.5090	 7.3940
 2.5100	 7.1760
 2.5110	 7.1940
 2.5120	 7.1340
 2.5140	 7.3030
 2.5150	 7.3910
 2.5160	 7.4230
 2.5170	 7.3370
 2.5180	 7.2840
 2.5200	 7.3490
 2.5210	 7.4500
 2.5220	 7.2500
 2.5230	 7.0230
 2.5250	 7.1470
 2.5260	 7.4710
 2.5270	 7.3120
 2.5280	 7.0000
 2.5290	 7.0130
 2.5310	 7.1500
 2.5320	 6.9690
 2.5330	 6.8720
 2.5340	 6.8500
 2.5360	 7.0260
 2.5370	 7.0040
 2.5380	 6.9800
 2.5390	 6.8500
 2.5410	 7.0080
 2.5420	 7.0860
 2.5430	 6.9700
 2.5440	 7.0670
 2.5460	 7.3430
 2.5470	 7.1900
 2.5480	 7.1680
 2.5490	 7.1200
 2.5510	 7.2860
 2.5520	 7.4060
 2.5530	 7.4300
 2.5540	 7.3370
 2.5560	 7.2860
 2.5570	 7.2510
 2.5580	 7.1900
 2.5590	 7.2310
 2.5610	 7.3310
 2.5620	 7.3810
 2.5630	 7.3500
 2.5640	 7.3010
 2.5660	 7.4130
 2.5670	 7.2340
 2.5680	 7.1770
 2.5700	 7.0660
 2.5710	 6.9910
 2.5720	 7.1780
 2.5730	 7.4180
 2.5750	 7.2620
 2.5760	 7.2630
 2.5770	 7.0910
 2.5790	 6.7870
 2.5800	 6.4540
 2.5810	 6.5400
 2.5820	 6.8640
 2.5840	 7.2190
 2.5850	 7.0740
 2.5860	 6.9100
 2.5880	 6.8800
 2.5890	 6.9790
 2.5900	 6.9250
 2.5910	 6.7390
 2.5930	 6.7900
 2.5940	 7.1270
 2.5950	 7.0000
 2.5970	 6.6090
 2.5980	 6.4830
 2.5990	 6.7280
 2.6000	 6.7010
 2.6020	 6.8000
 2.6030	 6.8220
 2.6040	 6.6220
 2.6060	 6.2950
 2.6070	 6.2560
 2.6080	 6.3010
 2.6100	 6.3110
 2.6110	 6.3140
 2.6120	 6.1930
 2.6140	 6.0620
 2.6150	 6.0520
 2.6160	 5.7640
 2.6180	 5.7140
 2.6190	 5.7280
 2.6200	 5.8130
 2.6220	 5.8200
 2.6230	 5.8030
 2.6240	 5.7190
 2.6260	 5.8160
 2.6270	 5.6310
 2.6280	 5.4390
 2.6300	 5.3930
 2.6310	 5.4230
 2.6320	 5.3640
 2.6340	 5.3270
 2.6350	 5.2230
 2.6360	 5.2920
 2.6380	 5.2790
 2.6390	 5.1710
 2.6400	 4.9580
 2.6420	 5.0370
 2.6430	 5.1370
 2.6440	 5.1190
 2.6460	 4.8090
 2.6470	 4.4690
 2.6480	 4.2800
 2.6500	 4.4940
 2.6510	 4.4890
 2.6520	 4.2950
 2.6540	 4.3210
 2.6550	 4.4450
 2.6560	 4.4150
 2.6580	 4.4330
 2.6590	 4.4020
 2.6610	 4.1900
 2.6620	 4.0840
 2.6630	 4.1850
 2.6650	 4.1440
 2.6660	 4.0670
 2.6670	 3.8980
 2.6690	 3.9280
 2.6700	 3.8020
 2.6720	 3.5720
 2.6730	 3.5590
 2.6740	 3.7050
 2.6760	 3.6340
 2.6770	 3.7790
 2.6780	 3.6800
 2.6800	 3.2930
 2.6810	 3.1940
 2.6830	 3.4960
 2.6840	 3.4670
 2.6850	 3.5700
 2.6870	 3.4820
 2.6880	 3.1850
 2.6900	 3.1610
 2.6910	 3.2630
 2.6920	 3.0550
 2.6940	 2.9320
 2.6950	 3.0310
 2.6970	 3.3080
 2.6980	 3.2000
 2.6990	 3.0550
 2.7010	 3.0430
 2.7020	 3.1920
 2.7040	 3.1890
 2.7050	 3.0710
 2.7060	 2.9950
 2.7080	 2.9490
 2.7090	 2.8060
 2.7110	 2.9540
 2.7120	 3.2130
 2.7130	 3.2950
 2.7150	 2.9640
 2.7160	 2.9180
 2.7180	 3.0320
 2.7190	 3.1400
 2.7210	 2.9930
 2.7220	 2.7610
 2.7230	 2.8230
 2.7250	 3.0490
 2.7260	 3.1060
 2.7280	 2.9960
 2.7290	 2.8910
 2.7310	 2.8820
 2.7320	 2.6400
 2.7330	 2.7900
 2.7350	 3.2350
 2.7360	 3.1730
 2.7380	 2.7580
 2.7390	 2.8170
 2.7410	 3.2090
 2.7420	 3.3260
 2.7440	 2.9440
 2.7450	 2.9260
 2.7470	 3.0480
 2.7480	 3.2560
 2.7490	 3.2780
 2.7510	 3.7460
 2.7520	 4.3800
 2.7540	 4.8130
 2.7550	 4.2620
 2.7570	 3.3390
 2.7580	 3.0690
 2.7600	 3.4330
 2.7610	 3.2790
 2.7630	 3.4310
 2.7640	 3.5120
 2.7660	 3.5190
 2.7670	 3.4190
 2.7680	 3.5270
 2.7700	 3.9070
 2.7710	 3.8390
 2.7730	 3.6200
 2.7740	 3.6770
 2.7760	 3.3950
 2.7770	 3.4840
 2.7790	 3.4930
 2.7800	 3.5690
 2.7820	 3.7230
 2.7830	 3.6880
 2.7850	 3.3150
 2.7860	 3.4310
 2.7880	 3.6900
 2.7890	 3.9000
 2.7910	 3.8350
 2.7920	 4.0360
 2.7940	 4.1860
 2.7950	 4.1990
 2.7970	 3.9660
 2.7980	 3.8130
 2.8000	 4.1240
 2.8010	 4.1260
 2.8030	 3.9390
 2.8040	 3.7160
 2.8060	 3.5580
 2.8070	 3.7110
 2.8090	 3.7240
 2.8110	 3.9060
 2.8120	 3.9740
 2.8140	 4.1320
 2.8150	 4.2880
 2.8170	 4.2780
 2.8180	 4.1100
 2.8200	 4.0460
 2.8210	 3.9880
 2.8230	 4.1030
 2.8240	 3.8540
 2.8260	 3.8870
 2.8270	 3.5800
 2.8290	 3.2150
 2.8300	 3.4700
 2.8320	 4.1250
 2.8340	 4.3450
 2.8350	 4.3750
 2.8370	 4.3410
 2.8380	 3.9700
 2.8400	 3.7590
 2.8410	 4.0340
 2.8430	 4.1520
 2.8440	 4.1190
 2.8460	 3.9530
 2.8480	 3.9970
 2.8490	 4.0940
 2.8510	 4.2610
 2.8520	 4.3270
 2.8540	 4.4150
 2.8550	 4.3560
 2.8570	 4.2620
 2.8590	 4.3030
 2.8600	 4.4770
 2.8620	 4.5880
 2.8630	 4.5240
 2.8650	 4.4450
 2.8660	 4.4030
 2.8680	 3.9740
 2.8700	 4.1730
 2.8710	 4.5360
 2.8730	 4.8200
 2.8740	 4.7510
 2.8760	 4.2620
 2.8780	 3.9300
 2.8790	 4.2400
 2.8810	 4.7560
 2.8820	 4.8690
 2.8840	 4.3520
 2.8860	 5.1670
 2.8870	 4.6510
 2.8890	 3.7050
 2.8900	 3.9250
 2.8920	 4.3760
 2.8940	 4.4570
 2.8950	 4.8410
 2.8970	 4.7590
 2.8980	 4.5610
 2.9000	 4.7030
 2.9020	 4.7410
 2.9030	 4.4290
 2.9050	 4.3090
 2.9070	 4.0960
 2.9080	 4.0150
 2.9100	 4.3680
 2.9120	 4.8820
 2.9130	 4.9170
 2.9150	 4.6260
 2.9160	 4.5130
 2.9180	 4.5320
 2.9200	 4.4240
 2.9210	 4.5500
 2.9230	 4.6310
 2.9250	 4.8010
 2.9260	 4.8410
 2.9280	 4.6870
 2.9300	 4.6190
 2.9310	 4.8010
 2.9330	 4.7040
 2.9350	 4.5160
 2.9360	 4.5370
 2.9380	 4.7160
 2.9400	 4.7840
 2.9410	 4.6660
 2.9430	 4.4810
 2.9450	 4.5630
 2.9460	 4.4760
 2.9480	 5.0170
 2.9500	 5.0070
 2.9510	 4.6390
 2.9530	 4.0160
 2.9550	 4.8940
 2.9560	 5.2640
 2.9580	 4.6270
 2.9600	 4.5320
 2.9610	 5.1040
 2.9630	 3.8020
 2.9650	 3.0950
 2.9660	 4.2490
 2.9680	 4.1920
 2.9700	 4.5970
 2.9720	 5.2680
 2.9730	 5.5920
 2.9750	 5.0320
 2.9770	 3.5940
 2.9780	 2.7120
 2.9800	 4.5560
 2.9820	 6.1960
 2.9840	 4.6030
 2.9850	 3.5090
 2.9870	 4.0060
 2.9890	 3.9390
 2.9900	 5.2930
 2.9920	 6.2180
 2.9940	 4.5090
 2.9960	 5.3090
 2.9970	 6.2830
 2.9990	 4.4780
 3.0010	 5.2180
 3.0030	 5.8180
 3.0040	 4.5710
 3.0060	 3.7050
 3.0080	 3.5380
 3.0100	 4.5320
 3.0110	 5.6670
 3.0130	 5.6870
 3.0150	 3.2570
 3.0170	 3.2050
 3.0180	 5.1020
 3.0200	 5.3120
 3.0220	 5.2940
 3.0240	 4.4890
 3.0250	 4.0750
 3.0270	 4.1810
 3.0290	 4.1120
 3.0310	 3.9250
 3.0320	 3.7770
 3.0340	 3.5920
 3.0360	 3.5600
 3.0380	 3.4380
 3.0400	 3.0980
 3.0410	 3.2460
 3.0430	 4.1070
 3.0450	 4.5150
 3.0470	 3.5940
 3.0480	 0.3040
 3.0500	 1.5640
 3.0520	 5.3910
 3.0540	 6.0540
 3.0560	 4.2350
 3.0570	 3.1130
 3.0590	 3.5340
 3.0610	 3.0200
 3.0630	 1.7400
 3.0650	 1.0180
 3.0660	 2.8930
 3.0680	 3.7000
 3.0700	 3.0400
 3.0720	 2.9640
 3.0740	 3.6650
 3.0760	 3.7430
 3.0770	 3.7050
 3.0790	 3.5260
 3.0810	 3.7510
 3.0830	 3.6920
 3.0850	 3.3980
 3.0870	 3.2650
 3.0880	 3.7730
 3.0900	 3.7600
 3.0920	 3.1680
 3.0940	 2.9870
 3.0960	 2.8080
 3.0980	 2.8820
 3.0990	 3.4540
 3.1010	 3.8430
 3.1030	 3.5350
 3.1050	 2.9400
 3.1070	 3.1400
 3.1090	 3.4410
 3.1110	 3.7250
 3.1120	 3.8330
 3.1140	 3.8280
 3.1160	 3.2890
 3.1180	 2.9140
 3.1200	 2.9060
 3.1220	 2.7140
 3.1240	 2.4770
 3.1260	 3.2130
 3.1270	 3.6590
 3.1290	 3.6060
 3.1310	 3.7960
 3.1330	 3.6820
 3.1350	 3.6650
 3.1370	 3.9280
 3.1390	 3.5400
 3.1410	 3.2910
 3.1430	 4.0030
 3.1450	 3.7010
 3.1460	 2.7920
 3.1480	 2.3480
 3.1500	 2.4540
 3.1520	 3.6100
 3.1540	 3.3910
 3.1560	 1.8730
 3.1580	 1.5000
 3.1600	 1.8460
 3.1620	 1.2490
 3.1640	 3.1620
 3.1660	 3.8070
 3.1680	 2.2160
 3.1700	 1.1580
 3.1710	 1.1980
 3.1730	 2.9420
 3.1750	 1.8910
 3.1770	 1.1990
 3.1790	 3.9280
 3.1810	 5.0030
 3.1830	 4.8460
 3.1850	 4.1980
 3.1870	 3.9230
 3.1890	 3.5480
 3.1910	 3.2890
 3.1930	 2.9840
 3.1950	 2.8130
 3.1970	 2.3690
 3.1990	 2.2630
 3.2010	 2.5260
 3.2030	 2.6770
 3.2050	 2.5630
 3.2070	 2.3770
 3.2090	 2.3670
 3.2110	 2.6820
 3.2130	 2.7550
 3.2150	 3.0180
 3.2170	 3.1860
 3.2190	 3.0490
 3.2210	 2.7420
 3.2230	 2.8110
 3.2250	 2.6380
 3.2270	 2.2280
 3.2290	 2.0120
 3.2310	 2.3800
 3.2330	 2.3930
 3.2350	 2.4640
 3.2370	 2.3700
 3.2390	 2.2350
 3.2410	 2.2950
 3.2430	 2.5700
 3.2450	 2.7940
 3.2470	 2.7280
 3.2490	 2.8730
 3.2510	 2.9250
 3.2530	 2.7440
 3.2550	 2.6210
 3.2570	 2.4910
 3.2590	 2.5250
 3.2610	 2.8710
 3.2630	 2.7360
 3.2650	 2.2150
 3.2670	 2.6870
 3.2690	 3.0780
 3.2720	 2.9720
 3.2740	 2.6980
 3.2760	 2.7310
 3.2780	 2.4960
 3.2800	 2.3170
 3.2820	 2.4810
 3.2840	 2.5340
 3.2860	 2.4000
 3.2880	 2.5530
 3.2900	 2.3460
 3.2920	 2.2250
 3.2940	 2.2070
 3.2960	 2.2680
 3.2990	 2.1910
 3.3010	 1.8510
 3.3030	 1.8950
 3.3050	 2.1890
 3.3070	 2.4380
 3.3090	 2.4560
 3.3110	 2.4640
 3.3130	 2.5340
 3.3150	 2.5550
 3.3180	 2.5590
 3.3200	 2.3830
 3.3220	 2.2820
 3.3240	 2.2630
 3.3260	 2.4020
 3.3280	 2.4810
 3.3300	 2.4980
 3.3330	 2.2400
 3.3350	 2.1310
 3.3370	 2.1150
 3.3390	 2.3670
 3.3410	 2.3870
 3.3430	 2.2620
 3.3450	 2.1120
 3.3480	 2.1430
 3.3500	 2.1080
 3.3520	 1.9980
 3.3540	 2.0800
 3.3560	 2.1080
 3.3580	 1.9750
 3.3610	 1.9500
 3.3630	 1.8690
 3.3650	 1.8040
 3.3670	 1.6870
 3.3690	 1.6900
 3.3720	 1.7270
 3.3740	 1.9380
 3.3760	 1.8750
 3.3780	 1.8920
 3.3800	 1.9670
 3.3830	 2.0280
 3.3850	 1.8370
 3.3870	 1.6730
 3.3890	 1.7340
 3.3910	 1.8530
 3.3940	 1.7350
 3.3960	 1.7540
 3.3980	 1.5710
 3.4000	 1.5260
 3.4020	 1.6280
 3.4050	 1.7200
 3.4070	 1.7200
 3.4090	 1.9490
 3.4110	 2.0330
 3.4140	 2.2510
 3.4160	 2.5290
 3.4180	 2.8370
 3.4200	 3.2150
 3.4230	 3.8390
 3.4250	 4.4390
 3.4270	 5.0110
 3.4290	 5.2730
 3.4320	 5.2200
 3.4340	 4.7550
 3.4360	 4.3680
 3.4390	 4.0960
 3.4410	 3.9100
 3.4430	 3.7180
 3.4450	 3.6590
 3.4480	 3.7820
 3.4500	 4.1500
 3.4520	 4.4620
 3.4550	 4.0020
 3.4570	 3.5330
 3.4590	 3.7900
 3.4620	 3.7850
 3.4640	 3.5450
 3.4660	 3.3010
 3.4680	 3.2280
 3.4710	 3.4670
 3.4730	 3.6500
 3.4750	 3.5290
 3.4780	 3.3320
 3.4800	 3.2230
 3.4820	 3.2560
 3.4850	 3.0460
 3.4870	 2.9920
 3.4890	 2.9020
 3.4920	 2.8310
 3.4940	 2.7590
 3.4970	 2.7130
 3.4990	 2.6670
 3.5010	 2.6600
 3.5040	 2.7920
 3.5060	 3.5170
 3.5080	 4.5100
 3.5110	 5.2790
 3.5130	 5.6580
 3.5160	 5.4430
 3.5180	 4.9180
 3.5200	 4.7420
 3.5230	 4.6360
 3.5250	 4.6000
 3.5270	 4.4800
 3.5300	 4.4490
 3.5320	 4.2520
 3.5350	 4.1660
 3.5370	 4.1850
 3.5400	 4.3000
 3.5420	 4.1780
 3.5440	 4.1820
 3.5470	 4.2570
 3.5490	 4.2290
 3.5520	 3.9230
 3.5540	 3.9890
 3.5570	 4.1280
 3.5590	 4.0970
 3.5610	 4.0360
 3.5640	 4.2370
 3.5660	 4.3370
 3.5690	 4.2830
 3.5710	 4.1490
 3.5740	 4.2270
 3.5760	 4.0960
 3.5790	 4.0020
 3.5810	 4.0260
 3.5840	 4.2470
 3.5860	 4.4200
 3.5890	 4.2410
 3.5910	 4.1980
 3.5930	 4.6450
 3.5960	 4.6200
 3.5980	 4.5960
 3.6010	 4.3150
 3.6030	 4.3350
 3.6060	 4.2780
 3.6080	 4.0380
 3.6110	 4.1300
 3.6140	 4.2680
 3.6160	 4.3230
 3.6190	 4.3980
 3.6210	 4.3990
 3.6240	 4.3340
 3.6260	 4.2420
 3.6290	 4.2740
 3.6310	 4.2830
 3.6340	 4.2040
 3.6360	 4.3260
 3.6390	 4.3750
 3.6410	 4.3070
 3.6440	 4.3900
 3.6470	 4.5140
 3.6490	 4.5160
 3.6520	 4.5640
 3.6540	 4.6190
 3.6570	 4.5090
 3.6590	 4.6160
 3.6620	 4.7310
 3.6650	 4.7210
 3.6670	 4.5740
 3.6700	 4.4810
 3.6720	 4.5990
 3.6750	 4.6150
 3.6780	 4.6590
 3.6800	 4.7870
 3.6830	 4.7020
 3.6850	 4.6680
 3.6880	 4.7310
 3.6910	 4.8590
 3.6930	 4.9220
 3.6960	 4.8330
 3.6990	 4.8330
 3.7010	 4.8710
 3.7040	 4.8880
 3.7060	 4.9740
 3.7090	 4.9010
 3.7120	 4.9200
 3.7140	 5.1030
 3.7170	 5.1810
 3.7200	 5.0770
 3.7220	 5.2030
 3.7250	 5.2400
 3.7280	 5.2280
 3.7300	 5.3400
 3.7330	 5.2900
 3.7360	 5.2420
 3.7390	 5.4760
 3.7410	 5.6310
 3.7440	 5.5500
 3.7470	 5.1740
 3.7490	 5.2860
 3.7520	 5.3910
 3.7550	 5.3810
 3.7580	 5.3600
 3.7600	 5.3010
 3.7630	 5.2690
 3.7660	 5.4440
 3.7680	 5.5860
 3.7710	 5.5380
 3.7740	 5.5880
 3.7770	 5.8230
 3.7790	 5.7470
 3.7820	 5.6660
 3.7850	 5.6250
 3.7880	 5.6840
 3.7900	 5.8350
 3.7930	 5.8670
 3.7960	 5.8380
 3.7990	 5.7540
 3.8020	 5.7750
 3.8040	 5.9640
 3.8070	 5.8910
 3.8100	 5.8030
 3.8130	 5.9380
 3.8160	 5.8840
 3.8180	 5.7430
 3.8210	 5.8570
 3.8240	 5.7950
 3.8270	 5.7540
 3.8300	 5.7240
 3.8330	 5.7700
 3.8350	 5.6250
 3.8380	 5.6640
 3.8410	 5.7580
 3.8440	 5.7450
 3.8470	 5.8250
 3.8500	 5.9240
 3.8520	 5.8960
 3.8550	 5.7470
 3.8580	 5.7860
 3.8610	 5.9590
 3.8640	 6.0570
 3.8670	 6.0360
 3.8700	 5.9780
 3.8730	 6.0540
 3.8750	 5.9660
 3.8780	 5.9160
 3.8810	 5.8730
 3.8840	 5.8770
 3.8870	 5.8470
 3.8900	 5.9290
 3.8930	 5.9110
 3.8960	 5.9280
 3.8990	 5.9820
 3.9020	 5.9590
 3.9050	 5.9780
 3.9080	 6.1310
 3.9110	 6.0440
 3.9140	 5.9420
 3.9160	 5.9760
 3.9190	 5.8820
 3.9220	 5.7570
 3.9250	 5.8260
 3.9280	 5.9390
 3.9310	 6.0210
 3.9340	 5.9660
 3.9370	 5.9280
 3.9400	 5.9410
 3.9430	 5.8590
 3.9460	 5.8180
 3.9490	 5.8680
 3.9520	 5.8520
 3.9550	 5.8090
 3.9580	 5.7250
 3.9610	 5.8050
 3.9640	 5.8220
 3.9670	 5.7300
 3.9700	 5.6240
 3.9730	 5.6470
 3.9770	 5.7610
 3.9800	 5.8520
 3.9830	 5.7990
 3.9860	 5.8080
 3.9890	 5.8560
 3.9920	 5.8990
 3.9950	 5.7800
 3.9980	 5.6430
 4.0010	 5.5850
 4.0040	 5.5930
 4.0070	 5.5880
 4.0100	 5.5850
 4.0130	 5.4990
 4.0170	 5.6040
 4.0200	 5.7280
 4.0230	 5.6580
 4.0260	 5.5030
 4.0290	 5.5280
 4.0320	 5.5500
 4.0350	 5.5880
 4.0380	 5.6090
 4.0420	 5.5860
 4.0450	 5.6950
 4.0480	 5.7360
 4.0510	 5.6160
 4.0540	 5.5460
 4.0570	 5.3340
 4.0610	 5.3270
 4.0640	 5.3830
 4.0670	 5.2690
 4.0700	 5.3610
 4.0730	 5.4660
 4.0770	 5.3960
 4.0800	 5.4700
 4.0830	 5.4230
 4.0860	 5.4270
 4.0890	 5.2930
 4.0930	 5.2390
 4.0960	 5.2680
 4.0990	 5.3820
 4.1020	 5.4260
 4.1060	 5.3370
 4.1090	 5.2380
 4.1120	 5.2080
 4.1150	 5.0930
 4.1190	 4.9840
 4.1220	 4.9350
 4.1250	 5.2140
 4.1280	 5.3320
 4.1320	 5.2680
 4.1350	 5.1550
 4.1380	 5.1710
 4.1420	 5.2320
 4.1450	 5.2740
 4.1480	 5.1330
 4.1520	 5.0570
 4.1550	 5.1500
 4.1580	 5.1750
 4.1620	 5.1680
 4.1650	 5.1100
 4.1680	 5.0170
 4.1720	 4.9580
 4.1750	 4.9990
 4.1780	 4.9830
 4.1820	 4.8770
 4.1850	 4.9230
 4.1890	 4.9570
 4.1920	 4.9300
 4.1950	 4.9230
 4.1990	 5.0130
 4.2020	 4.9270
 4.2060	 4.9180
 4.2090	 4.7840
 4.2120	 4.7450
 4.2160	 4.6760
 4.2190	 4.8610
 4.2230	 4.6200
 4.2260	 4.6000
 4.2300	 4.8040
 4.2330	 4.4050
 4.2360	 4.2600
 4.2400	 4.7440
 4.2430	 5.0240
 4.2470	 4.9040
 4.2500	 4.6270
 4.2540	 4.7010
 4.2570	 4.7420
 4.2610	 4.6920
 4.2640	 4.7240
 4.2680	 4.7490
 4.2710	 5.2200
 4.2750	 5.2430
 4.2780	 4.8090
 4.2820	 4.5640
 4.2850	 4.5000
 4.2890	 4.7230
 4.2930	 4.7250
 4.2960	 4.6640
 4.3000	 4.5320
 4.3030	 4.2750
 4.3070	 4.2740
 4.3100	 4.6170
 4.3140	 4.5910
 4.3180	 4.5650
 4.3210	 4.6150
 4.3250	 4.5480
 4.3280	 4.5270
 4.3320	 4.5650
 4.3360	 4.6530
 4.3390	 4.6450
 4.3430	 4.5130
 4.3470	 4.4520
 4.3500	 4.4190
 4.3540	 4.4730
 4.3570	 4.4960
 4.3610	 4.4740
 4.3650	 4.4520
 4.3680	 4.4490
 4.3720	 4.4730
 4.3760	 4.4740
 4.3800	 4.3520
 4.3830	 4.2670
 4.3870	 4.3440
 4.3910	 4.4120
 4.3940	 4.2850
 4.3980	 4.2120
 4.4020	 4.2670
 4.4060	 4.3120
 4.4090	 4.3670
 4.4130	 4.3490
 4.4170	 4.3610
 4.4210	 4.3510
 4.4240	 4.2090
 4.4280	 4.1540
 4.4320	 4.2200
 4.4360	 4.2750
 4.4400	 4.2640
 4.4430	 4.2560
 4.4470	 4.2350
 4.4510	 4.1870
 4.4550	 4.1930
 4.4590	 4.1800
 4.4620	 4.1570
 4.4660	 4.2540
 4.4700	 4.3980
 4.4740	 4.3620
 4.4780	 4.2660
 4.4820	 4.2250
 4.4860	 4.2360
 4.4900	 4.2890
 4.4930	 4.3180
 4.4970	 4.3450
 4.5010	 4.2670
 4.5050	 4.2990
 4.5090	 4.1810
 4.5130	 4.0890
 4.5170	 4.1420
 4.5210	 4.2070
 4.5250	 4.2040
 4.5290	 4.1590
 4.5330	 4.1400
 4.5370	 4.1410
 4.5410	 4.2110
 4.5450	 4.1790
 4.5490	 4.0610
 4.5530	 4.0380
 4.5570	 4.1970
 4.5610	 4.1770
 4.5650	 4.1070
 4.5690	 4.0490
 4.5730	 4.0880
 4.5770	 4.1880
 4.5810	 4.1690
 4.5850	 4.1490
 4.5890	 4.1900
 4.5930	 4.0270
 4.5970	 3.9480
 4.6010	 4.1800
 4.6050	 4.0670
 4.6090	 3.6040
 4.6130	 3.4890
 4.6170	 3.8600
 4.6220	 4.2710
 4.6260	 4.2720
 4.6300	 4.1080
 4.6340	 4.3100
 4.6380	 4.4550
 4.6420	 4.4690
 4.6460	 4.3680
 4.6510	 4.1300
 4.6550	 4.1140
 4.6590	 4.1960
 4.6630	 4.1120
 4.6670	 4.0890
 4.6720	 4.0850
 4.6760	 4.0050
 4.6800	 4.0170
 4.6840	 4.0580
 4.6880	 4.1040
 4.6930	 4.1240
 4.6970	 4.1290
 4.7010	 4.1010
 4.7050	 4.0650
 4.7100	 4.0900
 4.7140	 4.0800
 4.7180	 4.0740
 4.7230	 4.1210
 4.7270	 4.1080
 4.7310	 4.2020
 4.7360	 4.1670
 4.7400	 4.0320
 4.7440	 4.0240
 4.7490	 4.0780
 4.7530	 4.1430
 4.7570	 4.1520
 4.7620	 4.1780
 4.7660	 4.2650
 4.7700	 4.1360
 4.7750	 4.0390
 4.7790	 4.1460
 4.7840	 4.1250
 4.7880	 4.2820
 4.7920	 4.4700
 4.7970	 4.0770
 4.8010	 3.8790
 4.8060	 3.9210
 4.8100	 4.0180
 4.8150	 4.0200
 4.8190	 3.9310
 4.8240	 3.9800
 4.8280	 4.0420
 4.8330	 4.1390
 4.8370	 4.2030
 4.8420	 4.1390
 4.8460	 4.0640
 4.8510	 4.1530
 4.8550	 4.2450
 4.8600	 4.2790
 4.8640	 4.2850
 4.8690	 4.2740
 4.8730	 4.2730
 4.8780	 4.2160
 4.8830	 4.1090
 4.8870	 4.0990
 4.8920	 4.2030
 4.8960	 4.1980
 4.9010	 4.0940
 4.9060	 4.0290
 4.9100	 4.1980
 4.9150	 4.3580
 4.9200	 4.2950
 4.9240	 4.2060
 4.9290	 4.2550
 4.9340	 4.2370
 4.9380	 4.1900
 4.9430	 4.2350
 4.9480	 4.2610
 4.9530	 4.2980
 4.9570	 4.3100
 4.9620	 4.2800
 4.9670	 4.2440
 4.9720	 4.2900
 4.9760	 4.3700
 4.9810	 4.4050
 4.9860	 4.3720
 4.9910	 4.1880
 4.9960	 4.1490
 5.0000	 4.3050
 5.0050	 4.3770
 5.0100	 4.3900
 5.0150	 4.3720
 5.0200	 4.4060
 5.0250	 4.4130
 5.0290	 4.3860
 5.0340	 4.4470
 5.0390	 4.4400
 5.0440	 4.5100
 5.0490	 4.5290
 5.0540	 4.5220
 5.0590	 4.4050
 5.0640	 4.2860
 5.0690	 4.3460
 5.0740	 4.4180
 5.0790	 4.5130
 5.0840	 4.5750
 5.0890	 4.5660
 5.0940	 4.5690
 5.0990	 4.5520
 5.1040	 4.5130
 5.1090	 4.5200
 5.1140	 4.6090
 5.1190	 4.6390
 5.1240	 4.6340
 5.1290	 4.5890
 5.1340	 4.5010
 5.1390	 4.4850
 5.1440	 4.5400
 5.1490	 4.5740
 5.1540	 4.5710
 5.1600	 4.5730
 5.1650	 4.5760
 5.1700	 4.6270
 5.1750	 4.7080
 5.1800	 4.5610
 5.1850	 4.4680
 5.1910	 4.6040
 5.1960	 4.6900
 5.2010	 4.7170
 5.2060	 4.7590
 5.2110	 4.7520
 5.2170	 4.7380
 5.2220	 4.7430
 5.2270	 4.6050
 5.2320	 4.5480
 5.2380	 4.7680
 5.2430	 4.8550
 5.2480	 4.7720
 5.2540	 4.6860
 5.2590	 4.6590
 5.2640	 4.5850
 5.2700	 4.6600
 5.2750	 4.6500
 5.2800	 4.6830
 5.2860	 4.7540
 5.2910	 4.7500
 5.2970	 4.6810
 5.3020	 4.7110
 5.3070	 4.7890
 5.3130	 4.7430
 5.3180	 4.6670
 5.3240	 4.7490
 5.3290	 4.7390
 5.3350	 4.5970
 5.3400	 4.5140
 5.3460	 4.5620
 5.3510	 4.5860
 5.3570	 4.7040
 5.3620	 4.8100
 5.3680	 4.7370
 5.3730	 4.6110
 5.3790	 4.6020
 5.3850	 4.6170
 5.3900	 4.6770
 5.3960	 4.6170
 5.4010	 4.5340
 5.4070	 4.4920
 5.4130	 4.4460
 5.4180	 4.4370
 5.4240	 4.4660
 5.4300	 4.4550
 5.4350	 4.3870
 5.4410	 4.3400
 5.4470	 4.4510
 5.4530	 4.4760
 5.4580	 4.4710
 5.4640	 4.4620
 5.4700	 4.5030
 5.4760	 4.4570
 5.4810	 4.4360
 5.4870	 4.4000
 5.4930	 4.3560
 5.4990	 4.2490
 5.5050	 4.2920
 5.5110	 4.3400
 5.5160	 4.3030
 5.5220	 4.2550
 5.5280	 4.2560
 5.5340	 4.2040
 5.5400	 4.1910
 5.5460	 4.1620
 5.5520	 4.2170
 5.5580	 4.2720
 5.5640	 4.1260
 5.5700	 4.0250
 5.5760	 4.0640
 5.5820	 4.0850
 5.5880	 4.0730
 5.5940	 4.0570
 5.6000	 4.1290
 5.6060	 4.0500
 5.6120	 3.9040
 5.6180	 3.7900
 5.6240	 3.8710
 5.6300	 3.8980
 5.6360	 3.9170
 5.6420	 3.8560
 5.6490	 3.8360
 5.6550	 3.8620
 5.6610	 3.7750
 5.6670	 3.5240
 5.6730	 3.4670
 5.6800	 3.4060
 5.6860	 3.3150
 5.6920	 3.3500
 5.6980	 3.4610
 5.7040	 3.3650
 5.7110	 3.1230
 5.7170	 2.9750
 5.7230	 3.0410
 5.7300	 2.9550
 5.7360	 2.8120
 5.7420	 2.8300
 5.7490	 3.1480
 5.7550	 3.4390
 5.7620	 3.6380
 5.7680	 3.8560
 5.7740	 4.0430
 5.7810	 4.0910
 5.7870	 4.2370
 5.7940	 4.3470
 5.8000	 4.4830
 5.8070	 4.4020
 5.8130	 4.2790
 5.8200	 4.2850
 5.8260	 4.4060
 5.8330	 4.4490
 5.8390	 4.4970
 5.8460	 4.4790
 5.8530	 4.4000
 5.8590	 4.3780
 5.8660	 4.4110
 5.8720	 4.4230
 5.8790	 4.3120
 5.8860	 4.1190
 5.8920	 4.2630
 5.8990	 4.3640
 5.9060	 4.2690
 5.9130	 4.0790
 5.9190	 3.9820
 5.9260	 3.9690
 5.9330	 4.0170
 5.9400	 4.0290
 5.9470	 4.0130
 5.9530	 3.8890
 5.9600	 3.9370
 5.9670	 4.0290
 5.9740	 3.9740
 5.9810	 3.9010
 5.9880	 3.8360
 5.9950	 3.6290
 6.0020	 3.6390
 6.0090	 3.6420
 6.0160	 3.6320
 6.0230	 3.5360
 6.0300	 3.4740
 6.0370	 3.4270
 6.0440	 3.4860
 6.0510	 3.4520
 6.0580	 3.4080
 6.0650	 3.3580
 6.0720	 3.3610
 6.0790	 3.3270
 6.0860	 3.3330
 6.0930	 3.2650
 6.1000	 3.2850
 6.1080	 3.0850
 6.1150	 3.0090
 6.1220	 3.0540
 6.1290	 3.1920
 6.1370	 3.0710
 6.1440	 3.0000
 6.1510	 3.0620
 6.1580	 3.1400
 6.1660	 2.9480
 6.1730	 3.0120
 6.1800	 3.0500
 6.1880	 3.1080
 6.1950	 2.9590
 6.2030	 2.8570
 6.2100	 2.8930
 6.2170	 2.9060
 6.2250	 2.7550
 6.2320	 2.7540
 6.2400	 2.8080
 6.2470	 2.8570
 6.2550	 2.7800
 6.2630	 2.8530
 6.2700	 2.9260
 6.2780	 2.9880
 6.2850	 2.9020
 6.2930	 2.9840
 6.3010	 3.0150
 6.3080	 2.9670
 6.3160	 2.8860
 6.3240	 2.9860
 6.3310	 2.9620
 6.3390	 2.9910
 6.3470	 3.0010
 6.3550	 3.0720
 6.3620	 3.0950
 6.3700	 3.2370
 6.3780	 3.2420
 6.3860	 3.2340
 6.3940	 3.0520
 6.4020	 3.0070
 6.4100	 3.0760
 6.4180	 3.1390
 6.4260	 3.1420
 6.4330	 3.3000
 6.4410	 3.2680
 6.4490	 3.2430
 6.4580	 3.2350
 6.4660	 3.3310
 6.4740	 3.3600
 6.4820	 3.3450
 6.4900	 3.1250
 6.4980	 3.1000
 6.5060	 3.1520
 6.5140	 3.3790
 6.5230	 3.3520
 6.5310	 3.3540
 6.5390	 3.3100
 6.5470	 3.2840
 6.5550	 3.1950
 6.5640	 3.2670
 6.5720	 3.1380
 6.5800	 3.0530
 6.5890	 3.1940
 6.5970	 3.3770
 6.6060	 3.3890
 6.6140	 3.3500
 6.6220	 3.2580
 6.6310	 3.4040
 6.6390	 3.3720
 6.6480	 3.3430
 6.6560	 3.1840
 6.6650	 3.2310
 6.6740	 3.2470
 6.6820	 3.2510
 6.6910	 3.3200
 6.6990	 3.3880
 6.7080	 3.2810
 6.7170	 3.1940
 6.7260	 3.0970
 6.7340	 3.1860
 6.7430	 3.1040
 6.7520	 3.1150
 6.7610	 3.0230
 6.7690	 3.0510
 6.7780	 3.1740
 6.7870	 3.6190
 6.7960	 3.8220
 6.8050	 3.6060
 6.8140	 3.3240
 6.8230	 3.4790
 6.8320	 3.9480
 6.8410	 4.4310
 6.8500	 4.2370
 6.8590	 4.0610
 6.8680	 4.0100
 6.8770	 3.9880
 6.8860	 3.8650
 6.8950	 3.7960
 6.9050	 3.7830
 6.9140	 3.8310
 6.9230	 3.7050
 6.9320	 3.5430
 6.9420	 3.5260
 6.9510	 3.7640
 6.9600	 3.6670
 6.9700	 3.4860
 6.9790	 3.4110
 6.9880	 3.4570
 6.9980	 3.2510
 7.0070	 3.2060
 7.0170	 3.2190
 7.0260	 3.3780
 7.0360	 3.2970
 7.0450	 3.3260
 7.0550	 3.2380
 7.0650	 3.1710
 7.0740	 3.1480
 7.0840	 3.3630
 7.0940	 3.4140
 7.1030	 3.6250
 7.1130	 3.6180
 7.1230	 3.4400
 7.1330	 3.2100
 7.1420	 3.2490
 7.1520	 3.2500
 7.1620	 3.3380
 7.1720	 3.3400
 7.1820	 3.4970
 7.1920	 3.5150
 7.2020	 3.4840
 7.2120	 3.3900
 7.2220	 3.6150
 7.2320	 3.7230
 7.2420	 3.6190
 7.2520	 3.3690
 7.2620	 3.4560
 7.2730	 3.4130
 7.2830	 3.5070
 7.2930	 3.4180
 7.3030	 3.1880
 7.3140	 2.9920
 7.3240	 3.2040
 7.3340	 3.1800
 7.3450	 3.1350
 7.3550	 3.1950
 7.3660	 3.2600
 7.3760	 3.0640
 7.3870	 3.1150
 7.3970	 3.1760
 7.4080	 3.2780
 7.4180	 3.1310
 7.4290	 3.2610
 7.4400	 3.4250
 7.4500	 3.4530
 7.4610	 3.3320
 7.4720	 3.3750
 7.4830	 3.2190
 7.4930	 3.1450
 7.5040	 3.0990
 7.5150	 3.1750
 7.5260	 3.0570
 7.5370	 3.1250
 7.5480	 3.1770
 7.5590	 3.2320
 7.5700	 3.1120
 7.5810	 3.1360
 7.5920	 3.1000
 7.6030	 3.1420
 7.6140	 2.9560
 7.6260	 2.9910
 7.6370	 2.9960
 7.6480	 3.1440
 7.6590	 3.1500
 7.6710	 3.2620
 7.6820	 3.2540
 7.6930	 3.2630
 7.7050	 3.1860
 7.7160	 3.1280
 7.7280	 3.1610
 7.7390	 3.3750
 7.7510	 3.3320
 7.7630	 3.2290
 7.7740	 3.1260
 7.7860	 3.2490
 7.7980	 3.1190
 7.8090	 3.2620
 7.8210	 3.3190
 7.8330	 3.3490
 7.8450	 3.2030
 7.8570	 3.3250
 7.8690	 3.3450
 7.8810	 3.3440
 7.8930	 3.2680
 7.9050	 3.1910
 7.9170	 3.1020
 7.9290	 3.2900
 7.9410	 3.2110
 7.9530	 3.1840
 7.9650	 3.0630
 7.9780	 3.1760
 7.9900	 3.2900
 8.0020	 3.4110
 8.0150	 3.1470
 8.0270	 3.1650
 8.0390	 3.1990
 8.0520	 3.2330
 8.0640	 3.0340
 8.0770	 3.1750
 8.0900	 3.1640
 8.1020	 3.1800
 8.1150	 2.9810
 8.1280	 3.2160
 8.1400	 3.2000
 8.1530	 3.1220
 8.1660	 3.3140
 8.1790	 3.6230
 8.1920	 3.4520
 8.2050	 3.5070
 8.2180	 3.4800
 8.2310	 3.4380
 8.2440	 3.4250
 8.2570	 3.5740
 8.2700	 3.4790
 8.2830	 3.4480
 8.2970	 3.2660
 8.3100	 3.4820
 8.3230	 3.3520
 8.3370	 3.4650
 8.3500	 3.5050
 8.3640	 3.6500
 8.3770	 3.4620
 8.3910	 3.4780
 8.4040	 3.5670
 8.4180	 3.7420
 8.4320	 3.5670
 8.4450	 3.6640
 8.4590	 3.5910
 8.4730	 3.6890
 8.4870	 3.6700
 8.5010	 3.8330
 8.5150	 3.7410
 8.5290	 3.7760
 8.5430	 3.7600
 8.5570	 3.7640
 8.5710	 3.4090
 8.5850	 3.3280
 8.5990	 3.1360
 8.6140	 3.1580
 8.6280	 2.7630
 8.6420	 2.9260
 8.6570	 2.9560
 8.6710	 2.9720
 8.6860	 2.8880
 8.7000	 3.1400
 8.7150	 2.9280
 8.7300	 2.9080
 8.7440	 2.9700
 8.7590	 3.2620
 8.7740	 3.2280
 8.7890	 3.4590
 8.8040	 3.2860
 8.8190	 3.3750
 8.8340	 3.1260
 8.8490	 3.1850
 8.8640	 3.1570
 8.8790	 3.1570
 8.8940	 3.0580
 8.9100	 3.2520
 8.9250	 2.8870
 8.9400	 2.8430
 8.9560	 2.8260
 8.9710	 2.8020
 8.9870	 2.3940
 9.0020	 2.5350
 9.0180	 2.3490
 9.0340	 2.2980
 9.0500	 2.0890
 9.0650	 2.3760
 9.0810	 2.3670
 9.0970	 2.3960
 9.1130	 2.3630
 9.1290	 2.3630
 9.1450	 2.3250
 9.1610	 2.6730
 9.1780	 2.6040
 9.1940	 2.7150
 9.2100	 2.5980
 9.2270	 2.7350
 9.2430	 2.5100
 9.2600	 2.4890
 9.2760	 2.2420
 9.2930	 2.3380
 9.3090	 2.0500
 9.3260	 2.1440
 9.3430	 2.0870
 9.3600	 1.9080
 9.3770	 1.4780
 9.3940	 1.8410
 9.4110	 1.8890
 9.4280	 1.8960
 9.4450	 1.9320
 9.4620	 2.0940
 9.4800	 2.0930
 9.4970	 2.4530
 9.5140	 2.2190
 9.5320	 2.0830
 9.5500	 1.7770
 9.5670	 1.9990
 9.5850	 1.9910
 9.6030	 1.9810
 9.6200	 1.8460
 9.6380	 1.8640
 9.6560	 1.5020
 9.6740	 1.8240
 9.6920	 1.9810
 9.7100	 2.3810
 9.7290	 2.2560
 9.7470	 2.2640
 9.7650	 1.9840
 9.7840	 2.1960
 9.8020	 2.1500
 9.8210	 2.1820
 9.8390	 2.0980
 9.8580	 2.4310
 9.8770	 2.3920
 9.8960	 2.6190
 9.9150	 2.4470
 9.9340	 2.7470
 9.9530	 2.6890
 9.9720	 2.6400
 9.9910	 2.7580
10.0100	 3.1600
10.0300	 2.9140
10.0490	 2.9030
10.0690	 2.9420
10.0880	 3.3050
10.1080	 3.0800
10.1280	 3.0920
10.1480	 3.3120
10.1670	 3.7080
10.1870	 3.5000
10.2070	 3.5290
10.2280	 3.2750
10.2480	 3.2310
10.2680	 3.0830
10.2890	 3.2550
10.3090	 3.2010
10.3300	 3.3590
10.3500	 3.1900
10.3710	 3.2700
10.3920	 3.0710
10.4120	 3.3150
10.4330	 3.3300
10.4540	 3.6000
10.4760	 3.5970
10.4970	 3.6340
10.5180	 3.6050
10.5390	 4.0180
10.5610	 3.8530
10.5820	 3.9130
10.6040	 3.9490
10.6260	 4.1950
10.6480	 3.8670
10.6700	 3.9350
10.6920	 3.8180
10.7140	 3.8550
10.7360	 3.6150
10.7580	 3.7580
10.7800	 3.6420
10.8030	 3.6570
10.8250	 3.3920
10.8480	 3.7250
10.8710	 3.8010
10.8940	 3.8830
10.9170	 3.5440
10.9400	 3.5650
10.9630	 3.4120
10.9860	 3.3770
11.0090	 3.0880
11.0330	 3.3150
11.0560	 3.1990
11.0800	 3.3000
11.1040	 3.0340
11.1270	 3.0420
11.1510	 3.1850
11.1750	 3.3440
11.2000	 3.0910
11.2240	 3.3630
11.2480	 3.3780
11.2730	 3.3340
11.2970	 3.0870
11.3220	 3.1850
11.3470	 2.9840
11.3720	 3.1520
11.3970	 2.9210
11.4220	 3.2940
11.4470	 3.3720
11.4720	 3.6850
11.4980	 3.3690
11.5230	 3.2230
11.5490	 2.9960
11.5750	 3.2270
11.6000	 2.9540
11.6260	 2.9650
11.6530	 3.0070
11.6790	 3.3000
11.7050	 2.8530
11.7320	 2.9750
11.7580	 2.8560
11.7850	 2.9550
11.8120	 2.6880
11.8390	 2.8820
11.8660	 2.7540
11.8930	 2.7760
11.9200	 2.4410
11.9480	 2.5070
11.9760	 2.2060
12.0030	 2.5950
12.0310	 2.5960
12.0590	 2.7490
12.0870	 2.3080
12.1150	 2.5960
12.1440	 2.5320
12.1720	 2.5050
12.2010	 2.2980
12.2300	 2.5630
12.2590	 2.4130
12.2880	 2.9200
12.3170	 2.8240
12.3460	 2.8300
12.3760	 2.5680
12.4050	 2.6650
12.4350	 2.2450
12.4650	 2.3800
12.4950	 2.0890
12.5250	 2.2750
12.5550	 1.9810
12.5860	 2.1510
12.6170	 1.8640
12.6470	 2.1110
12.6780	 1.9190
12.7090	 1.8820
12.7410	 1.6040
12.7720	 2.2430
12.8030	 2.1180
12.8350	 1.9990
12.8670	 1.7760
12.8990	 2.0610
12.9310	 1.6260
12.9640	 1.9390
12.9960	 1.6720
13.0290	 1.6620
13.0610	 1.6640
13.0940	 1.9580
13.1280	 1.4660
13.1610	 1.6410
13.1940	 1.5260
13.2280	 1.9220
13.2620	 1.4500
13.2960	 1.7580
13.3300	 1.8210
13.3640	 2.0510
13.3990	 1.4150
13.4340	 1.6720
13.4690	 1.7880
13.5040	 1.8910
13.5390	 1.4000
13.5740	 1.6710
13.6100	 1.3780
13.6460	 1.9580
13.6820	 1.9390
13.7180	 2.2360
13.7540	 1.6830
13.7910	 1.6020
13.8280	 1.0690
13.8650	 1.6150
13.9020	 1.5430
13.9390	 1.8970
13.9770	 1.7490
14.0150	 2.0450
14.0530	 1.4570
14.0910	 1.7240
14.1290	 1.4160
14.1680	 1.9960
14.2070	 1.3430
14.2460	 1.4330
14.2850	 0.9910
14.3240	 1.4840
14.3640	 0.9110
14.4040	 1.4450
14.4440	 1.4880
14.4840	 2.1650
14.5250	 1.3440
14.5660	 1.6820
14.6070	 1.5210
14.6480	 2.3520
14.6900	 2.0890
14.7310	 2.9090
14.7730	 2.1970
14.8150	 2.1050
14.8580	 1.1630
14.9010	 1.8700
14.9440	 -0.849
14.9870	 -0.784
15.0300	 0.4260
15.0740	 1.7790
15.1180	 1.9560
15.1620	 2.6210
15.2060	 1.3510
15.2510	 1.3290
15.2960	 0.3510
15.3410	 1.8010
15.3870	 1.4510
